'Id: "COMMANDER Sample ID" Comment: "" Operator: "Lab Manager" Anode: "Cu" Wavelength: "1.5406" Scantype: "2Theta (TwoTheta)" TimePerStep: "19" X: "2" Y: "2" Z: "7.491" 
20.00000 4.579
20.02000 5.263
20.04000 4.263
20.06000 4.684
20.08000 3.526
20.10000 4.000
20.12000 3.789
20.14000 4.632
20.16000 4.158
20.18000 3.579
20.20000 4.263
20.22000 4.000
20.24000 4.105
20.26000 4.263
20.28000 4.000
20.30000 4.421
20.32000 4.053
20.34000 3.947
20.36000 3.947
20.38000 4.158
20.40000 3.895
20.42000 4.316
20.44000 4.421
20.46000 5.000
20.48000 4.316
20.50000 4.263
20.52000 4.737
20.54000 4.368
20.56000 4.316
20.58000 4.474
20.60000 4.263
20.62000 4.316
20.64000 4.421
20.66000 3.421
20.68000 4.632
20.70000 3.895
20.72000 4.158
20.74000 3.789
20.76000 4.737
20.78000 4.684
20.80000 4.263
20.82000 4.000
20.84000 3.947
20.86000 4.158
20.88000 3.263
20.90000 3.211
20.92000 4.053
20.94000 3.632
20.96000 3.947
20.98000 4.263
21.00000 4.105
21.02000 4.684
21.04000 4.316
21.06000 4.316
21.08000 3.684
21.10000 3.474
21.12000 3.842
21.14000 4.474
21.16000 4.211
21.18000 4.053
21.20000 3.842
21.22000 4.158
21.24000 3.632
21.26000 4.474
21.28000 4.158
21.30000 4.842
21.32000 3.789
21.34000 3.737
21.36000 3.316
21.38000 4.316
21.40000 4.053
21.42000 3.526
21.44000 4.158
21.46000 3.579
21.48000 4.263
21.50000 3.895
21.52000 3.737
21.54000 3.211
21.56000 3.789
21.58000 3.684
21.60000 3.842
21.62000 3.684
21.64000 3.632
21.66000 3.684
21.68000 3.737
21.70000 3.632
21.72000 3.211
21.74000 4.579
21.76000 3.263
21.78000 3.842
21.80000 3.263
21.82000 3.684
21.84000 3.474
21.86000 3.789
21.88000 3.789
21.90000 4.105
21.92000 4.263
21.94000 3.684
21.96000 3.947
21.98000 3.684
22.00000 5.211
22.02000 4.316
22.04000 3.842
22.06000 4.000
22.08000 3.474
22.10000 3.158
22.12000 3.947
22.14000 3.684
22.16000 4.947
22.18000 4.316
22.20000 3.316
22.22000 3.947
22.24000 4.053
22.26000 4.316
22.28000 5.053
22.30000 3.211
22.32000 4.000
22.34000 4.789
22.36000 4.421
22.38000 4.737
22.40000 4.579
22.42000 3.895
22.44000 3.421
22.46000 3.737
22.48000 5.263
22.50000 3.684
22.52000 4.316
22.54000 4.474
22.56000 3.737
22.58000 4.368
22.60000 4.368
22.62000 3.842
22.64000 4.000
22.66000 5.579
22.68000 3.737
22.70000 4.737
22.72000 4.053
22.74000 3.947
22.76000 4.053
22.78000 4.947
22.80000 4.579
22.82000 6.263
22.84000 5.158
22.86000 6.105
22.88000 5.158
22.90000 6.000
22.92000 6.000
22.94000 7.579
22.96000 8.000
22.98000 7.895
23.00000 7.579
23.02000 8.000
23.04000 8.158
23.06000 8.421
23.08000 7.632
23.10000 6.842
23.12000 6.789
23.14000 5.895
23.16000 6.632
23.18000 6.316
23.20000 6.579
23.22000 5.526
23.24000 7.105
23.26000 4.895
23.28000 5.105
23.30000 4.789
23.32000 4.842
23.34000 3.947
23.36000 4.158
23.38000 5.053
23.40000 4.211
23.42000 4.000
23.44000 4.263
23.46000 4.263
23.48000 3.947
23.50000 3.474
23.52000 4.211
23.54000 3.947
23.56000 3.579
23.58000 4.316
23.60000 3.421
23.62000 3.789
23.64000 3.684
23.66000 3.368
23.68000 4.053
23.70000 3.737
23.72000 3.579
23.74000 4.684
23.76000 4.474
23.78000 3.421
23.80000 3.105
23.82000 3.474
23.84000 3.421
23.86000 3.895
23.88000 3.368
23.90000 3.263
23.92000 3.842
23.94000 4.158
23.96000 3.053
23.98000 4.053
24.00000 3.842
24.02000 2.737
24.04000 2.895
24.06000 3.368
24.08000 3.316
24.10000 3.474
24.12000 2.842
24.14000 3.632
24.16000 3.947
24.18000 3.105
24.20000 2.947
24.22000 3.842
24.24000 2.895
24.26000 2.842
24.28000 3.526
24.30000 3.632
24.32000 3.053
24.34000 3.684
24.36000 3.737
24.38000 3.632
24.40000 3.684
24.42000 3.263
24.44000 3.105
24.46000 3.316
24.48000 4.105
24.50000 2.684
24.52000 3.579
24.54000 3.316
24.56000 3.000
24.58000 3.632
24.60000 3.474
24.62000 2.632
24.64000 4.316
24.66000 2.684
24.68000 2.474
24.70000 2.895
24.72000 3.368
24.74000 3.105
24.76000 3.474
24.78000 3.737
24.80000 3.842
24.82000 3.158
24.84000 2.737
24.86000 3.263
24.88000 2.895
24.90000 2.632
24.92000 2.842
24.94000 3.053
24.96000 3.105
24.98000 2.895
25.00000 3.632
25.02000 3.684
25.04000 3.211
25.06000 3.000
25.08000 3.158
25.10000 3.368
25.12000 3.211
25.14000 3.316
25.16000 2.947
25.18000 3.579
25.20000 2.737
25.22000 2.789
25.24000 3.263
25.26000 3.579
25.28000 3.000
25.30000 3.474
25.32000 3.579
25.34000 3.421
25.36000 3.158
25.38000 2.421
25.40000 3.000
25.42000 3.316
25.44000 3.316
25.46000 3.000
25.48000 2.684
25.50000 3.316
25.52000 3.474
25.54000 2.737
25.56000 3.000
25.58000 3.579
25.60000 2.895
25.62000 3.263
25.64000 2.421
25.66000 2.737
25.68000 3.316
25.70000 3.368
25.72000 3.000
25.74000 2.842
25.76000 3.105
25.78000 2.842
25.80000 3.632
25.82000 2.526
25.84000 2.895
25.86000 2.895
25.88000 2.211
25.90000 2.105
25.92000 2.895
25.94000 3.579
25.96000 3.579
25.98000 2.895
26.00000 2.526
26.02000 2.895
26.04000 2.579
26.06000 3.632
26.08000 2.526
26.10000 2.526
26.12000 3.000
26.14000 3.211
26.16000 3.368
26.18000 2.684
26.20000 3.789
26.22000 2.737
26.24000 3.263
26.26000 2.842
26.28000 3.053
26.30000 3.000
26.32000 3.053
26.34000 2.737
26.36000 2.684
26.38000 2.632
26.40000 2.789
26.42000 3.000
26.44000 2.947
26.46000 2.263
26.48000 3.368
26.50000 3.211
26.52000 2.737
26.54000 3.632
26.56000 3.421
26.58000 2.895
26.60000 2.789
26.62000 2.263
26.64000 2.737
26.66000 3.211
26.68000 2.158
26.70000 2.632
26.72000 2.789
26.74000 2.526
26.76000 2.579
26.78000 2.579
26.80000 3.684
26.82000 2.947
26.84000 3.474
26.86000 2.579
26.88000 2.526
26.90000 2.368
26.92000 3.263
26.94000 3.105
26.96000 3.632
26.98000 2.947
27.00000 3.789
27.02000 3.000
27.04000 3.684
27.06000 2.947
27.08000 3.000
27.10000 3.842
27.12000 3.053
27.14000 3.789
27.16000 2.842
27.18000 2.947
27.20000 2.842
27.22000 2.895
27.24000 2.842
27.26000 3.000
27.28000 3.316
27.30000 3.105
27.32000 3.158
27.34000 2.842
27.36000 3.632
27.38000 3.526
27.40000 3.368
27.42000 3.053
27.44000 2.421
27.46000 3.000
27.48000 2.526
27.50000 3.263
27.52000 2.105
27.54000 2.000
27.56000 3.158
27.58000 2.895
27.60000 3.053
27.62000 2.842
27.64000 2.684
27.66000 3.105
27.68000 2.263
27.70000 2.947
27.72000 2.474
27.74000 2.421
27.76000 2.842
27.78000 2.368
27.80000 2.368
27.82000 2.895
27.84000 2.895
27.86000 2.842
27.88000 2.684
27.90000 4.000
27.92000 2.789
27.94000 2.737
27.96000 3.053
27.98000 3.421
28.00000 3.211
28.02000 3.211
28.04000 3.526
28.06000 3.632
28.08000 2.947
28.10000 3.421
28.12000 3.632
28.14000 2.632
28.16000 3.947
28.18000 3.158
28.20000 3.421
28.22000 4.421
28.24000 4.000
28.26000 4.211
28.28000 4.526
28.30000 4.421
28.32000 4.368
28.34000 4.684
28.36000 5.632
28.38000 4.263
28.40000 4.895
28.42000 4.632
28.44000 5.895
28.46000 6.526
28.48000 7.105
28.50000 7.053
28.52000 8.158
28.54000 10.579
28.56000 9.684
28.58000 11.632
28.60000 11.000
28.62000 13.842
28.64000 16.053
28.66000 17.632
28.68000 18.316
28.70000 19.842
28.72000 21.632
28.74000 25.632
28.76000 24.316
28.78000 25.842
28.80000 25.526
28.82000 24.158
28.84000 25.632
28.86000 21.789
28.88000 20.000
28.90000 20.526
28.92000 18.684
28.94000 16.789
28.96000 15.947
28.98000 13.526
29.00000 13.000
29.02000 10.263
29.04000 7.737
29.06000 9.105
29.08000 7.947
29.10000 7.526
29.12000 6.053
29.14000 6.947
29.16000 4.895
29.18000 5.526
29.20000 4.737
29.22000 5.474
29.24000 5.000
29.26000 5.000
29.28000 4.579
29.30000 4.000
29.32000 4.158
29.34000 4.421
29.36000 3.158
29.38000 3.947
29.40000 2.842
29.42000 3.474
29.44000 3.789
29.46000 2.842
29.48000 2.526
29.50000 3.316
29.52000 2.737
29.54000 2.737
29.56000 2.474
29.58000 2.842
29.60000 3.684
29.62000 3.474
29.64000 2.526
29.66000 2.368
29.68000 2.421
29.70000 2.579
29.72000 2.737
29.74000 2.474
29.76000 3.000
29.78000 2.789
29.80000 2.684
29.82000 2.421
29.84000 2.158
29.86000 2.579
29.88000 2.316
29.90000 2.105
29.92000 2.632
29.94000 2.632
29.96000 2.421
29.98000 2.316
30.00000 2.421
30.02000 2.263
30.04000 2.368
30.06000 2.842
30.08000 2.000
30.10000 2.579
30.12000 2.368
30.14000 2.368
30.16000 2.158
30.18000 2.526
30.20000 3.526
30.22000 2.947
30.24000 2.158
30.26000 2.632
30.28000 3.053
30.30000 2.316
30.32000 2.632
30.34000 2.632
30.36000 2.105
30.38000 2.789
30.40000 2.474
30.42000 2.211
30.44000 3.158
30.46000 2.105
30.48000 2.737
30.50000 2.211
30.52000 2.579
30.54000 2.947
30.56000 2.263
30.58000 2.684
30.60000 2.316
30.62000 3.158
30.64000 2.737
30.66000 2.211
30.68000 1.947
30.70000 1.895
30.72000 2.474
30.74000 3.000
30.76000 2.158
30.78000 2.474
30.80000 2.526
30.82000 2.368
30.84000 2.368
30.86000 3.316
30.88000 2.895
30.90000 2.368
30.92000 2.474
30.94000 3.105
30.96000 3.263
30.98000 2.789
31.00000 2.632
31.02000 2.895
31.04000 2.947
31.06000 3.211
31.08000 2.895
31.10000 2.947
31.12000 2.737
31.14000 3.368
31.16000 3.684
31.18000 3.842
31.20000 2.789
31.22000 2.947
31.24000 4.211
31.26000 3.737
31.28000 4.421
31.30000 5.053
31.32000 4.368
31.34000 4.000
31.36000 5.263
31.38000 5.316
31.40000 4.947
31.42000 5.421
31.44000 5.737
31.46000 5.684
31.48000 5.421
31.50000 5.842
31.52000 5.947
31.54000 5.895
31.56000 6.211
31.58000 6.947
31.60000 6.000
31.62000 6.211
31.64000 5.526
31.66000 7.105
31.68000 6.000
31.70000 6.368
31.72000 5.579
31.74000 7.947
31.76000 7.105
31.78000 7.579
31.80000 7.368
31.82000 7.316
31.84000 7.842
31.86000 9.263
31.88000 10.158
31.90000 9.632
31.92000 10.737
31.94000 12.947
31.96000 13.263
31.98000 13.684
32.00000 14.474
32.02000 17.368
32.04000 15.789
32.06000 18.632
32.08000 21.526
32.10000 20.368
32.12000 22.895
32.14000 23.263
32.16000 27.000
32.18000 24.947
32.20000 25.000
32.22000 25.158
32.24000 23.842
32.26000 26.474
32.28000 24.053
32.30000 23.842
32.32000 23.105
32.34000 23.211
32.36000 21.158
32.38000 21.053
32.40000 20.158
32.42000 18.316
32.44000 17.053
32.46000 15.842
32.48000 14.737
32.50000 13.842
32.52000 14.000
32.54000 10.684
32.56000 10.263
32.58000 10.316
32.60000 9.895
32.62000 8.579
32.64000 7.211
32.66000 7.842
32.68000 6.737
32.70000 6.737
32.72000 6.842
32.74000 5.579
32.76000 5.421
32.78000 5.053
32.80000 5.421
32.82000 4.211
32.84000 4.842
32.86000 3.842
32.88000 3.842
32.90000 3.684
32.92000 2.947
32.94000 3.842
32.96000 4.000
32.98000 4.000
33.00000 2.947
33.02000 2.895
33.04000 3.526
33.06000 2.421
33.08000 2.842
33.10000 2.789
33.12000 3.053
33.14000 2.947
33.16000 2.526
33.18000 2.947
33.20000 3.000
33.22000 3.368
33.24000 2.526
33.26000 3.053
33.28000 2.421
33.30000 3.421
33.32000 2.895
33.34000 2.474
33.36000 2.263
33.38000 2.737
33.40000 2.789
33.42000 2.895
33.44000 2.474
33.46000 2.211
33.48000 2.421
33.50000 2.684
33.52000 2.368
33.54000 2.526
33.56000 2.368
33.58000 2.684
33.60000 2.421
33.62000 2.632
33.64000 2.737
33.66000 2.474
33.68000 3.000
33.70000 2.105
33.72000 3.368
33.74000 1.895
33.76000 2.895
33.78000 3.000
33.80000 2.316
33.82000 3.263
33.84000 3.737
33.86000 3.474
33.88000 3.632
33.90000 3.053
33.92000 2.947
33.94000 4.053
33.96000 4.105
33.98000 4.316
34.00000 4.526
34.02000 4.842
34.04000 4.474
34.06000 5.105
34.08000 4.211
34.10000 5.842
34.12000 5.632
34.14000 5.000
34.16000 4.947
34.18000 5.421
34.20000 4.737
34.22000 4.316
34.24000 5.474
34.26000 4.053
34.28000 3.421
34.30000 4.368
34.32000 3.316
34.34000 4.421
34.36000 3.632
34.38000 2.684
34.40000 3.368
34.42000 2.684
34.44000 2.684
34.46000 3.000
34.48000 2.842
34.50000 2.526
34.52000 3.263
34.54000 2.000
34.56000 2.263
34.58000 2.789
34.60000 2.263
34.62000 2.158
34.64000 2.474
34.66000 2.105
34.68000 2.684
34.70000 2.842
34.72000 2.053
34.74000 2.421
34.76000 2.053
34.78000 1.947
34.80000 2.895
34.82000 2.000
34.84000 2.158
34.86000 2.211
34.88000 2.684
34.90000 2.368
34.92000 2.526
34.94000 2.105
34.96000 2.579
34.98000 2.368
35.00000 2.368
35.02000 2.474
35.04000 2.053
35.06000 2.421
35.08000 2.053
35.10000 2.316
35.12000 2.105
35.14000 2.579
35.16000 2.421
35.18000 2.684
35.20000 3.421
35.22000 2.368
35.24000 2.211
35.26000 2.789
35.28000 1.579
35.30000 2.579
35.32000 2.105
35.34000 2.895
35.36000 2.579
35.38000 2.368
35.40000 2.316
35.42000 3.053
35.44000 2.421
35.46000 3.632
35.48000 2.842
35.50000 2.895
35.52000 4.421
35.54000 3.316
35.56000 3.526
35.58000 3.263
35.60000 4.947
35.62000 4.421
35.64000 4.316
35.66000 4.895
35.68000 5.105
35.70000 6.105
35.72000 5.368
35.74000 5.579
35.76000 7.053
35.78000 6.263
35.80000 6.526
35.82000 7.368
35.84000 8.211
35.86000 8.421
35.88000 7.737
35.90000 8.053
35.92000 9.105
35.94000 7.579
35.96000 7.737
35.98000 6.947
36.00000 7.316
36.02000 7.579
36.04000 6.632
36.06000 7.684
36.08000 6.579
36.10000 5.737
36.12000 6.158
36.14000 6.842
36.16000 6.368
36.18000 6.842
36.20000 8.316
36.22000 7.526
36.24000 8.368
36.26000 8.421
36.28000 8.684
36.30000 10.105
36.32000 10.105
36.34000 11.263
36.36000 11.211
36.38000 12.684
36.40000 12.368
36.42000 11.789
36.44000 12.474
36.46000 14.737
36.48000 13.263
36.50000 14.368
36.52000 15.105
36.54000 12.158
36.56000 13.737
36.58000 11.842
36.60000 12.000
36.62000 11.895
36.64000 12.105
36.66000 10.684
36.68000 8.263
36.70000 9.947
36.72000 8.053
36.74000 7.579
36.76000 6.579
36.78000 6.000
36.80000 5.368
36.82000 5.579
36.84000 4.474
36.86000 5.474
36.88000 5.579
36.90000 4.579
36.92000 3.947
36.94000 3.895
36.96000 3.684
36.98000 2.947
37.00000 2.474
37.02000 2.684
37.04000 2.737
37.06000 3.211
37.08000 2.842
37.10000 2.316
37.12000 2.263
37.14000 2.000
37.16000 2.632
37.18000 2.947
37.20000 2.316
37.22000 1.895
37.24000 2.368
37.26000 2.000
37.28000 2.316
37.30000 2.105
37.32000 2.263
37.34000 2.105
37.36000 2.421
37.38000 2.211
37.40000 1.947
37.42000 2.158
37.44000 1.684
37.46000 1.895
37.48000 2.105
37.50000 1.895
37.52000 2.421
37.54000 1.684
37.56000 2.158
37.58000 1.842
37.60000 1.842
37.62000 1.632
37.64000 2.474
37.66000 2.421
37.68000 1.368
37.70000 2.158
37.72000 1.368
37.74000 1.316
37.76000 1.842
37.78000 1.737
37.80000 1.789
37.82000 2.474
37.84000 1.895
37.86000 2.158
37.88000 1.632
37.90000 1.789
37.92000 2.105
37.94000 1.316
37.96000 2.368
37.98000 1.421
38.00000 1.579
38.02000 1.684
38.04000 1.842
38.06000 1.579
38.08000 1.789
38.10000 1.632
38.12000 1.895
38.14000 2.053
38.16000 2.368
38.18000 1.579
38.20000 1.895
38.22000 1.947
38.24000 1.842
38.26000 1.579
38.28000 1.895
38.30000 1.895
38.32000 1.632
38.34000 1.947
38.36000 2.158
38.38000 1.526
38.40000 1.632
38.42000 1.737
38.44000 1.947
38.46000 1.737
38.48000 1.579
38.50000 1.947
38.52000 1.421
38.54000 2.000
38.56000 1.737
38.58000 1.737
38.60000 2.000
38.62000 1.632
38.64000 1.632
38.66000 2.211
38.68000 1.684
38.70000 1.316
38.72000 0.947
38.74000 1.947
38.76000 1.526
38.78000 1.632
38.80000 1.368
38.82000 1.842
38.84000 1.526
38.86000 1.579
38.88000 2.053
38.90000 1.684
38.92000 1.474
38.94000 1.737
38.96000 1.474
38.98000 1.947
39.00000 1.526
39.02000 1.842
39.04000 1.632
39.06000 1.421
39.08000 1.947
39.10000 1.895
39.12000 2.421
39.14000 1.895
39.16000 1.526
39.18000 1.579
39.20000 0.789
39.22000 1.579
39.24000 1.211
39.26000 1.368
39.28000 1.789
39.30000 1.263
39.32000 1.263
39.34000 2.000
39.36000 1.632
39.38000 1.316
39.40000 1.947
39.42000 1.737
39.44000 1.895
39.46000 1.579
39.48000 1.842
39.50000 1.737
39.52000 1.632
39.54000 1.789
39.56000 1.368
39.58000 2.000
39.60000 1.316
39.62000 1.895
39.64000 1.263
39.66000 1.474
39.68000 1.316
39.70000 1.684
39.72000 1.789
39.74000 1.526
39.76000 1.316
39.78000 2.211
39.80000 1.789
39.82000 1.474
39.84000 1.526
39.86000 1.684
39.88000 1.789
39.90000 1.053
39.92000 1.158
39.94000 1.000
39.96000 1.421
39.98000 1.632
40.00000 1.526
40.02000 1.632
40.04000 2.105
40.06000 1.579
40.08000 1.579
40.10000 1.579
40.12000 1.105
40.14000 1.474
40.16000 1.737
40.18000 2.053
40.20000 1.632
40.22000 1.368
40.24000 1.947
40.26000 1.474
40.28000 1.737
40.30000 1.211
40.32000 1.895
40.34000 1.895
40.36000 1.474
40.38000 1.474
40.40000 1.368
40.42000 1.421
40.44000 1.737
40.46000 1.632
40.48000 1.421
40.50000 1.526
40.52000 1.737
40.54000 1.842
40.56000 2.211
40.58000 2.000
40.60000 1.684
40.62000 1.421
40.64000 1.421
40.66000 1.842
40.68000 1.684
40.70000 2.000
40.72000 1.368
40.74000 1.316
40.76000 1.579
40.78000 1.158
40.80000 1.632
40.82000 1.000
40.84000 1.368
40.86000 1.737
40.88000 1.737
40.90000 2.211
40.92000 1.684
40.94000 1.474
40.96000 1.316
40.98000 1.474
41.00000 1.316
41.02000 1.421
41.04000 1.316
41.06000 1.316
41.08000 1.789
41.10000 1.684
41.12000 1.474
41.14000 1.263
41.16000 1.421
41.18000 1.158
41.20000 1.632
41.22000 2.158
41.24000 1.211
41.26000 1.684
41.28000 1.842
41.30000 1.105
41.32000 1.947
41.34000 1.158
41.36000 1.947
41.38000 1.158
41.40000 1.737
41.42000 2.211
41.44000 1.526
41.46000 1.789
41.48000 1.368
41.50000 1.526
41.52000 1.105
41.54000 1.737
41.56000 1.579
41.58000 1.632
41.60000 1.579
41.62000 1.579
41.64000 2.105
41.66000 1.842
41.68000 1.737
41.70000 1.526
41.72000 1.842
41.74000 1.053
41.76000 1.474
41.78000 0.842
41.80000 1.895
41.82000 1.368
41.84000 1.842
41.86000 1.368
41.88000 1.947
41.90000 1.579
41.92000 1.632
41.94000 1.211
41.96000 1.632
41.98000 1.263
42.00000 0.842
42.02000 1.579
42.04000 1.579
42.06000 2.000
42.08000 1.474
42.10000 1.316
42.12000 1.789
42.14000 1.316
42.16000 1.158
42.18000 1.579
42.20000 1.842
42.22000 0.895
42.24000 1.789
42.26000 1.947
42.28000 1.474
42.30000 1.684
42.32000 1.789
42.34000 1.737
42.36000 1.368
42.38000 2.158
42.40000 1.632
42.42000 1.316
42.44000 1.895
42.46000 1.526
42.48000 1.895
42.50000 1.211
42.52000 0.842
42.54000 2.105
42.56000 1.368
42.58000 1.316
42.60000 1.000
42.62000 1.947
42.64000 1.737
42.66000 1.684
42.68000 1.684
42.70000 1.421
42.72000 2.000
42.74000 1.842
42.76000 1.947
42.78000 1.158
42.80000 1.211
42.82000 1.632
42.84000 2.053
42.86000 2.000
42.88000 1.368
42.90000 1.579
42.92000 1.263
42.94000 1.895
42.96000 2.158
42.98000 1.895
43.00000 2.211
43.02000 1.684
43.04000 1.947
43.06000 1.579
43.08000 1.632
43.10000 2.158
43.12000 1.526
43.14000 1.526
43.16000 2.158
43.18000 1.316
43.20000 2.000
43.22000 1.947
43.24000 1.737
43.26000 1.947
43.28000 1.421
43.30000 2.158
43.32000 1.895
43.34000 1.737
43.36000 1.842
43.38000 1.789
43.40000 1.263
43.42000 1.789
43.44000 1.737
43.46000 1.526
43.48000 1.684
43.50000 1.263
43.52000 1.474
43.54000 2.211
43.56000 1.526
43.58000 1.684
43.60000 1.526
43.62000 1.474
43.64000 1.579
43.66000 1.474
43.68000 2.000
43.70000 1.737
43.72000 2.000
43.74000 2.000
43.76000 1.947
43.78000 1.842
43.80000 1.684
43.82000 1.211
43.84000 1.789
43.86000 1.579
43.88000 1.684
43.90000 1.474
43.92000 1.737
43.94000 1.105
43.96000 1.474
43.98000 1.579
44.00000 1.842
44.02000 1.526
44.04000 2.158
44.06000 2.263
44.08000 1.474
44.10000 1.684
44.12000 1.368
44.14000 1.579
44.16000 1.632
44.18000 2.053
44.20000 1.632
44.22000 1.947
44.24000 2.105
44.26000 1.632
44.28000 2.263
44.30000 1.895
44.32000 2.632
44.34000 2.895
44.36000 3.474
44.38000 3.737
44.40000 3.526
44.42000 2.421
44.44000 3.632
44.46000 4.105
44.48000 4.000
44.50000 3.474
44.52000 4.421
44.54000 4.263
44.56000 4.158
44.58000 4.579
44.60000 4.842
44.62000 3.842
44.64000 3.684
44.66000 5.316
44.68000 3.000
44.70000 3.579
44.72000 3.421
44.74000 2.947
44.76000 3.000
44.78000 3.526
44.80000 3.842
44.82000 3.263
44.84000 2.842
44.86000 2.737
44.88000 3.474
44.90000 2.579
44.92000 3.632
44.94000 2.105
44.96000 2.105
44.98000 2.000
45.00000 2.105
45.02000 2.368
45.04000 2.368
45.06000 2.789
45.08000 2.579
45.10000 2.895
45.12000 2.684
45.14000 2.105
45.16000 2.421
45.18000 2.632
45.20000 2.684
45.22000 2.632
45.24000 1.947
45.26000 1.947
45.28000 3.368
45.30000 2.316
45.32000 2.684
45.34000 3.105
45.36000 3.579
45.38000 3.421
45.40000 2.895
45.42000 3.684
45.44000 3.368
45.46000 3.474
45.48000 3.842
45.50000 3.421
45.52000 4.158
45.54000 3.211
45.56000 5.105
45.58000 5.000
45.60000 5.368
45.62000 7.053
45.64000 5.789
45.66000 5.316
45.68000 6.632
45.70000 8.105
45.72000 10.053
45.74000 10.368
45.76000 11.789
45.78000 13.368
45.80000 12.895
45.82000 16.368
45.84000 16.789
45.86000 19.000
45.88000 20.421
45.90000 22.368
45.92000 24.158
45.94000 25.947
45.96000 28.526
45.98000 28.895
46.00000 30.263
46.02000 27.737
46.04000 29.632
46.06000 26.474
46.08000 26.158
46.10000 25.368
46.12000 25.263
46.14000 22.737
46.16000 19.474
46.18000 20.737
46.20000 17.684
46.22000 15.158
46.24000 14.263
46.26000 13.316
46.28000 12.211
46.30000 11.211
46.32000 11.053
46.34000 9.316
46.36000 8.474
46.38000 8.053
46.40000 8.000
46.42000 7.474
46.44000 7.842
46.46000 5.579
46.48000 7.053
46.50000 5.789
46.52000 4.895
46.54000 5.421
46.56000 5.579
46.58000 6.263
46.60000 5.737
46.62000 5.526
46.64000 5.737
46.66000 6.526
46.68000 6.105
46.70000 7.316
46.72000 6.895
46.74000 6.842
46.76000 8.789
46.78000 7.474
46.80000 8.789
46.82000 9.158
46.84000 8.947
46.86000 9.842
46.88000 11.421
46.90000 11.789
46.92000 11.105
46.94000 10.737
46.96000 11.684
46.98000 12.842
47.00000 12.000
47.02000 11.158
47.04000 12.632
47.06000 12.947
47.08000 13.789
47.10000 13.737
47.12000 12.895
47.14000 13.316
47.16000 12.632
47.18000 12.632
47.20000 16.263
47.22000 15.895
47.24000 16.105
47.26000 17.632
47.28000 21.105
47.30000 21.316
47.32000 22.000
47.34000 24.158
47.36000 27.211
47.38000 29.263
47.40000 29.895
47.42000 32.579
47.44000 30.211
47.46000 31.895
47.48000 30.789
47.50000 31.211
47.52000 31.737
47.54000 31.053
47.56000 27.947
47.58000 25.842
47.60000 26.368
47.62000 27.211
47.64000 27.737
47.66000 24.947
47.68000 24.842
47.70000 24.421
47.72000 26.421
47.74000 27.263
47.76000 26.053
47.78000 25.158
47.80000 25.737
47.82000 26.789
47.84000 25.211
47.86000 25.684
47.88000 24.105
47.90000 22.579
47.92000 22.316
47.94000 21.053
47.96000 18.421
47.98000 17.000
48.00000 15.684
48.02000 16.526
48.04000 14.263
48.06000 12.789
48.08000 11.789
48.10000 7.684
48.12000 8.789
48.14000 8.211
48.16000 7.632
48.18000 5.316
48.20000 7.263
48.22000 5.895
48.24000 5.421
48.26000 5.579
48.28000 5.632
48.30000 4.316
48.32000 4.158
48.34000 4.526
48.36000 3.895
48.38000 3.316
48.40000 3.421
48.42000 3.526
48.44000 3.053
48.46000 3.263
48.48000 2.737
48.50000 2.947
48.52000 2.632
48.54000 2.474
48.56000 2.263
48.58000 1.842
48.60000 2.579
48.62000 2.526
48.64000 1.895
48.66000 2.158
48.68000 1.368
48.70000 2.368
48.72000 2.632
48.74000 2.368
48.76000 2.263
48.78000 1.895
48.80000 2.053
48.82000 2.158
48.84000 1.895
48.86000 1.632
48.88000 1.895
48.90000 2.263
48.92000 2.211
48.94000 1.579
48.96000 1.421
48.98000 2.053
49.00000 1.737
49.02000 1.737
49.04000 1.737
49.06000 2.000
49.08000 1.368
49.10000 1.684
49.12000 2.105
49.14000 1.684
49.16000 1.632
49.18000 1.526
49.20000 1.947
49.22000 1.737
49.24000 1.684
49.26000 2.053
49.28000 1.526
49.30000 1.368
49.32000 2.000
49.34000 1.684
49.36000 1.684
49.38000 1.947
49.40000 1.526
49.42000 1.474
49.44000 1.789
49.46000 1.684
49.48000 1.421
49.50000 1.211
49.52000 1.316
49.54000 1.632
49.56000 1.474
49.58000 1.316
49.60000 1.579
49.62000 1.368
49.64000 2.000
49.66000 1.632
49.68000 1.579
49.70000 1.421
49.72000 1.158
49.74000 1.632
49.76000 0.947
49.78000 1.263
49.80000 1.368
49.82000 1.684
49.84000 1.526
49.86000 1.789
49.88000 1.000
49.90000 1.368
49.92000 1.579
49.94000 1.632
49.96000 2.263
49.98000 1.684
50.00000 1.947
50.02000 2.053
50.04000 1.211
50.06000 1.474
50.08000 1.368
50.10000 1.105
50.12000 1.211
50.14000 1.474
50.16000 2.000
50.18000 2.000
50.20000 1.789
50.22000 1.105
50.24000 0.842
50.26000 1.526
50.28000 1.421
50.30000 1.684
50.32000 1.263
50.34000 1.526
50.36000 2.000
50.38000 1.421
50.40000 1.789
50.42000 1.579
50.44000 1.211
50.46000 1.368
50.48000 1.263
50.50000 2.211
50.52000 1.474
50.54000 1.632
50.56000 2.053
50.58000 1.842
50.60000 1.895
50.62000 2.737
50.64000 2.000
50.66000 2.000
50.68000 2.579
50.70000 2.368
50.72000 2.947
50.74000 2.579
50.76000 3.158
50.78000 2.947
50.80000 3.368
50.82000 2.895
50.84000 3.474
50.86000 3.421
50.88000 3.474
50.90000 5.105
50.92000 3.737
50.94000 4.579
50.96000 5.526
50.98000 6.368
51.00000 5.526
51.02000 6.368
51.04000 5.895
51.06000 7.000
51.08000 6.263
51.10000 8.105
51.12000 6.632
51.14000 6.842
51.16000 7.579
51.18000 8.053
51.20000 6.789
51.22000 7.263
51.24000 7.526
51.26000 6.263
51.28000 5.421
51.30000 5.947
51.32000 4.632
51.34000 4.789
51.36000 5.053
51.38000 5.105
51.40000 4.632
51.42000 4.421
51.44000 3.684
51.46000 3.158
51.48000 3.474
51.50000 2.211
51.52000 2.632
51.54000 3.263
51.56000 2.684
51.58000 2.421
51.60000 2.789
51.62000 3.053
51.64000 1.789
51.66000 2.263
51.68000 1.842
51.70000 2.263
51.72000 2.158
51.74000 1.368
51.76000 1.474
51.78000 2.526
51.80000 1.579
51.82000 1.474
51.84000 1.368
51.86000 1.684
51.88000 1.632
51.90000 1.368
51.92000 1.316
51.94000 1.263
51.96000 1.211
51.98000 1.211
52.00000 1.895
52.02000 1.158
52.04000 1.947
52.06000 1.526
52.08000 1.368
52.10000 1.368
52.12000 1.263
52.14000 1.474
52.16000 1.737
52.18000 1.421
52.20000 1.211
52.22000 1.579
52.24000 0.895
52.26000 1.789
52.28000 1.263
52.30000 1.211
52.32000 1.105
52.34000 1.684
52.36000 1.263
52.38000 1.737
52.40000 1.211
52.42000 1.368
52.44000 1.368
52.46000 0.737
52.48000 1.263
52.50000 1.316
52.52000 1.263
52.54000 1.579
52.56000 1.842
52.58000 1.105
52.60000 1.632
52.62000 1.421
52.64000 1.579
52.66000 1.211
52.68000 1.474
52.70000 1.474
52.72000 1.316
52.74000 1.421
52.76000 1.105
52.78000 1.211
52.80000 1.053
52.82000 1.053
52.84000 1.368
52.86000 1.105
52.88000 0.632
52.90000 1.632
52.92000 1.105
52.94000 0.947
52.96000 1.158
52.98000 1.105
53.00000 1.474
53.02000 1.579
53.04000 1.158
53.06000 1.105
53.08000 1.000
53.10000 0.947
53.12000 1.211
53.14000 0.895
53.16000 1.053
53.18000 1.632
53.20000 1.105
53.22000 1.684
53.24000 1.211
53.26000 0.842
53.28000 0.947
53.30000 0.842
53.32000 1.105
53.34000 1.105
53.36000 1.211
53.38000 1.526
53.40000 1.158
53.42000 1.368
53.44000 1.263
53.46000 1.158
53.48000 1.316
53.50000 1.053
53.52000 1.158
53.54000 1.263
53.56000 1.526
53.58000 0.737
53.60000 1.000
53.62000 1.158
53.64000 1.263
53.66000 1.158
53.68000 1.158
53.70000 1.526
53.72000 1.053
53.74000 1.105
53.76000 1.526
53.78000 1.053
53.80000 1.263
53.82000 1.000
53.84000 1.105
53.86000 1.211
53.88000 1.526
53.90000 1.211
53.92000 1.211
53.94000 1.421
53.96000 1.158
53.98000 1.421
54.00000 1.263
54.02000 1.053
54.04000 1.526
54.06000 1.158
54.08000 1.211
54.10000 1.368
54.12000 1.316
54.14000 1.368
54.16000 1.421
54.18000 1.368
54.20000 1.789
54.22000 1.842
54.24000 1.263
54.26000 1.526
54.28000 1.368
54.30000 1.632
54.32000 1.684
54.34000 2.000
54.36000 2.105
54.38000 2.053
54.40000 2.474
54.42000 1.895
54.44000 2.105
54.46000 2.105
54.48000 2.211
54.50000 2.263
54.52000 3.158
54.54000 3.526
54.56000 2.947
54.58000 2.632
54.60000 2.737
54.62000 3.053
54.64000 2.368
54.66000 3.632
54.68000 3.053
54.70000 3.053
54.72000 3.105
54.74000 3.368
54.76000 2.842
54.78000 3.316
54.80000 3.789
54.82000 2.737
54.84000 3.421
54.86000 3.053
54.88000 2.474
54.90000 2.421
54.92000 1.895
54.94000 2.737
54.96000 2.526
54.98000 2.421
55.00000 2.263
55.02000 1.842
55.04000 2.895
55.06000 2.158
55.08000 1.895
55.10000 1.474
55.12000 1.579
55.14000 1.579
55.16000 1.474
55.18000 1.842
55.20000 1.474
55.22000 1.684
55.24000 1.158
55.26000 2.105
55.28000 2.158
55.30000 1.737
55.32000 1.316
55.34000 1.526
55.36000 1.737
55.38000 1.211
55.40000 1.632
55.42000 1.421
55.44000 2.263
55.46000 1.684
55.48000 2.316
55.50000 2.000
55.52000 1.789
55.54000 1.842
55.56000 1.316
55.58000 2.158
55.60000 1.632
55.62000 1.421
55.64000 1.474
55.66000 2.053
55.68000 2.000
55.70000 1.684
55.72000 1.895
55.74000 1.947
55.76000 1.842
55.78000 1.579
55.80000 1.947
55.82000 1.947
55.84000 1.789
55.86000 2.263
55.88000 2.579
55.90000 2.368
55.92000 2.421
55.94000 2.368
55.96000 2.474
55.98000 2.158
56.00000 2.684
56.02000 2.842
56.04000 3.316
56.06000 3.895
56.08000 3.263
56.10000 4.053
56.12000 5.737
56.14000 4.789
56.16000 5.158
56.18000 5.684
56.20000 7.053
56.22000 7.053
56.24000 6.789
56.26000 7.368
56.28000 6.895
56.30000 8.263
56.32000 6.789
56.34000 8.263
56.36000 6.632
56.38000 7.895
56.40000 7.211
56.42000 6.947
56.44000 8.263
56.46000 7.842
56.48000 7.053
56.50000 7.158
56.52000 7.737
56.54000 7.737
56.56000 7.789
56.58000 7.737
56.60000 8.895
56.62000 8.158
56.64000 6.947
56.66000 9.947
56.68000 8.737
56.70000 8.053
56.72000 8.316
56.74000 9.421
56.76000 8.737
56.78000 7.368
56.80000 7.842
56.82000 8.895
56.84000 7.316
56.86000 9.158
56.88000 7.895
56.90000 6.263
56.92000 6.842
56.94000 5.316
56.96000 6.105
56.98000 5.316
57.00000 4.526
57.02000 5.263
57.04000 4.316
57.06000 4.526
57.08000 4.421
57.10000 3.842
57.12000 3.579
57.14000 3.947
57.16000 3.105
57.18000 3.158
57.20000 3.053
57.22000 2.842
57.24000 2.474
57.26000 2.368
57.28000 2.474
57.30000 2.000
57.32000 2.000
57.34000 2.211
57.36000 1.842
57.38000 2.526
57.40000 2.737
57.42000 2.158
57.44000 2.421
57.46000 2.000
57.48000 2.263
57.50000 3.053
57.52000 1.895
57.54000 2.526
57.56000 1.632
57.58000 2.842
57.60000 2.684
57.62000 2.789
57.64000 2.211
57.66000 2.632
57.68000 2.474
57.70000 2.421
57.72000 2.895
57.74000 1.842
57.76000 2.737
57.78000 3.105
57.80000 2.842
57.82000 3.000
57.84000 3.316
57.86000 3.263
57.88000 2.737
57.90000 3.421
57.92000 2.579
57.94000 3.421
57.96000 3.105
57.98000 3.316
58.00000 3.737
58.02000 3.579
58.04000 2.684
58.06000 3.158
58.08000 2.579
58.10000 3.263
58.12000 3.316
58.14000 3.211
58.16000 2.895
58.18000 2.632
58.20000 3.368
58.22000 3.000
58.24000 3.632
58.26000 2.263
58.28000 3.263
58.30000 2.737
58.32000 2.474
58.34000 2.632
58.36000 2.316
58.38000 2.316
58.40000 1.947
58.42000 2.474
58.44000 2.263
58.46000 2.053
58.48000 2.053
58.50000 2.053
58.52000 2.316
58.54000 1.579
58.56000 2.211
58.58000 1.263
58.60000 1.368
58.62000 1.632
58.64000 1.684
58.66000 1.842
58.68000 1.895
58.70000 1.421
58.72000 1.368
58.74000 1.421
58.76000 2.211
58.78000 2.000
58.80000 1.632
58.82000 2.000
58.84000 1.368
58.86000 1.158
58.88000 1.421
58.90000 1.526
58.92000 1.579
58.94000 1.684
58.96000 1.632
58.98000 1.579
59.00000 1.526
59.02000 0.737
59.04000 1.579
59.06000 1.263
59.08000 1.211
59.10000 1.211
59.12000 0.947
59.14000 1.474
59.16000 1.263
59.18000 1.263
59.20000 1.211
59.22000 1.526
59.24000 1.789
59.26000 1.526
59.28000 1.211
59.30000 2.053
59.32000 1.316
59.34000 0.895
59.36000 1.263
59.38000 1.368
59.40000 0.947
59.42000 1.474
59.44000 1.947
59.46000 1.474
59.48000 1.421
59.50000 1.368
59.52000 1.368
59.54000 1.158
59.56000 1.737
59.58000 1.105
59.60000 1.211
59.62000 1.263
59.64000 1.368
59.66000 0.895
59.68000 0.947
59.70000 1.474
59.72000 1.474
59.74000 1.684
59.76000 1.105
59.78000 2.211
59.80000 2.474
59.82000 1.526
59.84000 1.474
59.86000 1.684
59.88000 2.211
59.90000 1.789
59.92000 1.737
59.94000 1.211
59.96000 1.474
59.98000 1.895
60.00000 1.526
60.02000 1.789
60.04000 1.789
60.06000 1.895
60.08000 1.368
60.10000 2.158
60.12000 1.895
60.14000 1.789
60.16000 1.632
60.18000 1.368
60.20000 2.000
60.22000 1.789
60.24000 1.474
60.26000 1.579
60.28000 1.368
60.30000 1.579
60.32000 1.053
60.34000 1.368
60.36000 1.895
60.38000 1.263
60.40000 1.105
60.42000 1.737
60.44000 1.105
60.46000 1.105
60.48000 1.526
60.50000 1.211
60.52000 1.053
60.54000 1.368
60.56000 0.895
60.58000 1.000
60.60000 1.526
60.62000 1.158
60.64000 1.316
60.66000 0.632
60.68000 1.000
60.70000 0.947
60.72000 1.211
60.74000 1.000
60.76000 0.947
60.78000 1.947
60.80000 1.263
60.82000 1.105
60.84000 1.579
60.86000 1.000
60.88000 1.316
60.90000 1.263
60.92000 1.263
60.94000 1.053
60.96000 1.316
60.98000 1.263
61.00000 1.158
61.02000 1.316
61.04000 1.579
61.06000 1.158
61.08000 0.842
61.10000 0.737
61.12000 1.105
61.14000 1.474
61.16000 1.000
61.18000 1.316
61.20000 1.053
61.22000 1.211
61.24000 0.684
61.26000 1.211
61.28000 0.895
61.30000 1.053
61.32000 0.737
61.34000 1.684
61.36000 1.053
61.38000 1.053
61.40000 1.421
61.42000 1.053
61.44000 1.053
61.46000 0.579
61.48000 1.421
61.50000 1.895
61.52000 1.105
61.54000 1.105
61.56000 1.474
61.58000 1.632
61.60000 1.368
61.62000 1.211
61.64000 0.947
61.66000 0.947
61.68000 1.526
61.70000 1.421
61.72000 1.368
61.74000 1.421
61.76000 1.053
61.78000 1.526
61.80000 1.263
61.82000 1.368
61.84000 1.316
61.86000 1.368
61.88000 1.000
61.90000 1.368
61.92000 1.421
61.94000 1.421
61.96000 1.000
61.98000 1.211
62.00000 1.000
62.02000 1.211
62.04000 1.421
62.06000 1.263
62.08000 1.211
62.10000 1.737
62.12000 1.474
62.14000 1.105
62.16000 1.316
62.18000 1.895
62.20000 1.474
62.22000 1.211
62.24000 1.421
62.26000 1.474
62.28000 0.789
62.30000 1.421
62.32000 1.053
62.34000 2.053
62.36000 1.158
62.38000 1.789
62.40000 1.579
62.42000 0.895
62.44000 1.737
62.46000 1.895
62.48000 1.684
62.50000 1.211
62.52000 1.579
62.54000 1.105
62.56000 1.368
62.58000 1.421
62.60000 0.947
62.62000 1.474
62.64000 1.526
62.66000 1.526
62.68000 1.526
62.70000 1.421
62.72000 1.632
62.74000 1.211
62.76000 1.632
62.78000 1.316
62.80000 0.895
62.82000 1.000
62.84000 1.684
62.86000 1.632
62.88000 1.211
62.90000 0.947
62.92000 1.474
62.94000 1.316
62.96000 1.684
62.98000 1.895
63.00000 1.105
63.02000 1.053
63.04000 1.263
63.06000 1.263
63.08000 1.368
63.10000 1.421
63.12000 1.632
63.14000 1.316
63.16000 1.526
63.18000 1.895
63.20000 1.474
63.22000 1.632
63.24000 1.632
63.26000 1.316
63.28000 1.421
63.30000 1.368
63.32000 1.368
63.34000 1.158
63.36000 0.947
63.38000 1.211
63.40000 0.789
63.42000 1.579
63.44000 1.105
63.46000 1.842
63.48000 1.474
63.50000 1.421
63.52000 1.737
63.54000 1.263
63.56000 1.211
63.58000 1.211
63.60000 0.632
63.62000 1.316
63.64000 1.684
63.66000 1.211
63.68000 1.474
63.70000 0.895
63.72000 1.526
63.74000 1.053
63.76000 1.316
63.78000 1.211
63.80000 1.158
63.82000 1.000
63.84000 1.421
63.86000 0.895
63.88000 1.474
63.90000 1.000
63.92000 1.368
63.94000 1.632
63.96000 1.316
63.98000 1.263
64.00000 0.947
64.02000 1.368
64.04000 1.421
64.06000 2.000
64.08000 1.368
64.10000 1.421
64.12000 1.526
64.14000 0.632
64.16000 1.737
64.18000 1.632
64.20000 1.684
64.22000 1.421
64.24000 1.158
64.26000 2.105
64.28000 2.053
64.30000 0.842
64.32000 1.474
64.34000 1.158
64.36000 1.632
64.38000 1.211
64.40000 1.000
64.42000 0.895
64.44000 1.158
64.46000 1.263
64.48000 0.947
64.50000 1.000
64.52000 1.474
64.54000 1.368
64.56000 1.263
64.58000 1.421
64.60000 1.263
64.62000 0.947
64.64000 1.211
64.66000 1.474
64.68000 1.158
64.70000 1.632
64.72000 1.105
64.74000 1.526
64.76000 1.526
64.78000 1.053
64.80000 1.316
64.82000 1.947
64.84000 1.053
64.86000 1.684
64.88000 1.842
64.90000 1.684
64.92000 1.421
64.94000 1.421
64.96000 1.579
64.98000 1.474
65.00000 1.737
65.02000 2.263
65.04000 1.579
65.06000 1.158
65.08000 2.000
65.10000 1.579
65.12000 1.474
65.14000 1.158
65.16000 1.579
65.18000 2.158
65.20000 1.632
65.22000 1.105
65.24000 1.579
65.26000 1.316
65.28000 1.579
65.30000 1.579
65.32000 1.842
65.34000 1.895
65.36000 1.842
65.38000 1.684
65.40000 1.632
65.42000 1.684
65.44000 1.211
65.46000 1.632
65.48000 1.789
65.50000 1.737
65.52000 1.947
65.54000 1.684
65.56000 1.789
65.58000 1.526
65.60000 1.526
65.62000 1.789
65.64000 1.632
65.66000 1.526
65.68000 1.158
65.70000 1.474
65.72000 1.316
65.74000 1.421
65.76000 1.316
65.78000 1.684
65.80000 1.789
65.82000 1.842
65.84000 1.684
65.86000 1.579
65.88000 1.474
65.90000 1.368
65.92000 1.105
65.94000 1.632
65.96000 1.737
65.98000 1.316
66.00000 1.526
66.02000 0.947
66.04000 1.474
66.06000 1.474
66.08000 2.000
66.10000 1.421
66.12000 1.579
66.14000 1.368
66.16000 1.421
66.18000 1.316
66.20000 1.316
66.22000 1.105
66.24000 1.211
66.26000 1.474
66.28000 1.211
66.30000 1.684
66.32000 1.526
66.34000 1.474
66.36000 1.474
66.38000 1.737
66.40000 1.526
66.42000 1.684
66.44000 1.474
66.46000 0.895
66.48000 1.158
66.50000 1.474
66.52000 1.421
66.54000 1.526
66.56000 1.579
66.58000 1.053
66.60000 1.421
66.62000 1.421
66.64000 1.632
66.66000 1.632
66.68000 1.421
66.70000 1.474
66.72000 0.895
66.74000 1.526
66.76000 1.211
66.78000 0.947
66.80000 1.789
66.82000 1.895
66.84000 1.421
66.86000 1.526
66.88000 2.316
66.90000 1.105
66.92000 1.684
66.94000 1.368
66.96000 1.789
66.98000 1.105
67.00000 1.526
67.02000 1.105
67.04000 1.684
67.06000 1.421
67.08000 1.789
67.10000 1.632
67.12000 1.474
67.14000 1.421
67.16000 1.737
67.18000 1.368
67.20000 1.421
67.22000 1.421
67.24000 1.316
67.26000 1.684
67.28000 1.684
67.30000 1.421
67.32000 0.895
67.34000 1.789
67.36000 1.421
67.38000 1.263
67.40000 1.316
67.42000 1.211
67.44000 1.684
67.46000 1.684
67.48000 1.526
67.50000 1.579
67.52000 1.895
67.54000 1.421
67.56000 1.158
67.58000 1.368
67.60000 1.737
67.62000 1.263
67.64000 1.211
67.66000 1.421
67.68000 1.474
67.70000 1.526
67.72000 1.474
67.74000 1.474
67.76000 1.316
67.78000 1.053
67.80000 1.526
67.82000 1.684
67.84000 1.053
67.86000 1.316
67.88000 1.947
67.90000 1.316
67.92000 1.526
67.94000 1.632
67.96000 1.684
67.98000 1.842
68.00000 1.579
68.02000 1.421
68.04000 1.842
68.06000 1.842
68.08000 1.632
68.10000 1.526
68.12000 1.526
68.14000 1.895
68.16000 1.737
68.18000 1.632
68.20000 1.632
68.22000 1.632
68.24000 1.947
68.26000 1.421
68.28000 1.842
68.30000 2.579
68.32000 2.316
68.34000 1.842
68.36000 2.421
68.38000 2.211
68.40000 2.684
68.42000 1.842
68.44000 2.105
68.46000 1.632
68.48000 1.579
68.50000 1.526
68.52000 1.737
68.54000 1.895
68.56000 1.368
68.58000 1.368
68.60000 1.579
68.62000 1.947
68.64000 1.263
68.66000 1.632
68.68000 1.684
68.70000 2.000
68.72000 1.684
68.74000 1.526
68.76000 1.526
68.78000 1.211
68.80000 1.526
68.82000 1.053
68.84000 1.316
68.86000 1.579
68.88000 1.737
68.90000 1.579
68.92000 2.263
68.94000 1.158
68.96000 1.632
68.98000 1.947
69.00000 2.105
69.02000 1.737
69.04000 1.526
69.06000 1.474
69.08000 2.000
69.10000 1.895
69.12000 2.105
69.14000 1.895
69.16000 1.842
69.18000 1.737
69.20000 1.842
69.22000 1.789
69.24000 1.789
69.26000 2.053
69.28000 2.053
69.30000 2.421
69.32000 2.053
69.34000 1.526
69.36000 1.895
69.38000 1.579
69.40000 2.053
69.42000 1.316
69.44000 1.684
69.46000 2.211
69.48000 2.000
69.50000 2.526
69.52000 2.474
69.54000 2.684
69.56000 2.632
69.58000 2.684
69.60000 2.474
69.62000 3.526
69.64000 2.842
69.66000 2.579
69.68000 2.211
69.70000 3.105
69.72000 3.947
69.74000 3.947
69.76000 2.895
69.78000 3.526
69.80000 3.737
69.82000 4.579
69.84000 4.211
69.86000 4.474
69.88000 3.263
69.90000 4.632
69.92000 4.579
69.94000 3.368
69.96000 5.263
69.98000 4.053
70.00000 4.684
70.02000 3.895
70.04000 4.053
70.06000 3.842
70.08000 3.316
70.10000 4.211
70.12000 3.368
70.14000 3.632
70.16000 4.368
70.18000 2.947
70.20000 2.684
70.22000 2.053
70.24000 2.632
70.26000 2.632
70.28000 2.000
70.30000 2.526
70.32000 1.895
70.34000 2.316
70.36000 2.421
70.38000 2.158
70.40000 1.684
70.42000 2.000
70.44000 2.000
70.46000 1.895
70.48000 1.632
70.50000 1.053
70.52000 0.895
70.54000 1.737
70.56000 1.368
70.58000 1.579
70.60000 1.526
70.62000 1.842
70.64000 1.000
70.66000 0.947
70.68000 1.211
70.70000 1.526
70.72000 1.579
70.74000 1.158
70.76000 1.211
70.78000 1.211
70.80000 1.316
70.82000 0.895
70.84000 0.947
70.86000 1.105
70.88000 0.895
70.90000 0.789
70.92000 1.000
70.94000 1.211
70.96000 1.000
70.98000 1.263
71.00000 1.211
71.02000 0.789
71.04000 0.789
71.06000 1.053
71.08000 1.158
71.10000 1.053
71.12000 1.316
71.14000 1.474
71.16000 1.526
71.18000 0.789
71.20000 1.053
71.22000 1.684
71.24000 0.947
71.26000 1.211
71.28000 1.105
71.30000 1.263
71.32000 1.053
71.34000 1.842
71.36000 1.105
71.38000 1.053
71.40000 1.105
71.42000 1.421
71.44000 1.211
71.46000 1.105
71.48000 1.263
71.50000 1.684
71.52000 1.158
71.54000 1.579
71.56000 1.421
71.58000 1.000
71.60000 1.316
71.62000 1.105
71.64000 0.895
71.66000 1.368
71.68000 1.211
71.70000 1.368
71.72000 1.211
71.74000 1.737
71.76000 0.789
71.78000 1.105
71.80000 1.474
71.82000 0.842
71.84000 1.105
71.86000 1.053
71.88000 0.842
71.90000 1.158
71.92000 1.105
71.94000 1.105
71.96000 1.158
71.98000 1.211
72.00000 1.158
72.02000 1.053
72.04000 0.947
72.06000 1.105
72.08000 0.947
72.10000 0.789
72.12000 0.737
72.14000 0.947
72.16000 1.158
72.18000 1.211
72.20000 0.842
72.22000 1.211
72.24000 1.053
72.26000 0.895
72.28000 1.263
72.30000 0.684
72.32000 0.789
72.34000 0.737
72.36000 1.000
72.38000 1.000
72.40000 1.105
72.42000 0.684
72.44000 0.632
72.46000 0.895
72.48000 1.000
72.50000 0.789
72.52000 1.263
72.54000 0.737
72.56000 0.947
72.58000 0.737
72.60000 1.105
72.62000 1.105
72.64000 0.895
72.66000 0.895
72.68000 1.421
72.70000 0.842
72.72000 0.895
72.74000 0.895
72.76000 1.368
72.78000 1.579
72.80000 1.105
72.82000 0.947
72.84000 1.053
72.86000 1.105
72.88000 1.368
72.90000 1.684
72.92000 1.105
72.94000 0.947
72.96000 1.421
72.98000 1.211
73.00000 1.579
73.02000 1.316
73.04000 1.421
73.06000 1.158
73.08000 1.632
73.10000 1.474
73.12000 1.895
73.14000 1.053
73.16000 1.105
73.18000 1.474
73.20000 1.632
73.22000 1.789
73.24000 2.105
73.26000 1.105
73.28000 1.211
73.30000 1.579
73.32000 2.053
73.34000 1.368
73.36000 1.684
73.38000 1.579
73.40000 1.895
73.42000 1.526
73.44000 2.316
73.46000 1.947
73.48000 1.474
73.50000 1.263
73.52000 1.474
73.54000 1.789
73.56000 1.105
73.58000 1.421
73.60000 1.211
73.62000 1.947
73.64000 1.368
73.66000 1.579
73.68000 1.316
73.70000 1.105
73.72000 1.474
73.74000 1.474
73.76000 1.105
73.78000 1.211
73.80000 1.211
73.82000 1.053
73.84000 1.789
73.86000 1.263
73.88000 1.526
73.90000 1.158
73.92000 1.000
73.94000 0.789
73.96000 1.000
73.98000 1.158
74.00000 0.947
74.02000 1.211
74.04000 0.842
74.06000 0.789
74.08000 1.421
74.10000 0.842
74.12000 0.947
74.14000 1.000
74.16000 0.684
74.18000 1.158
74.20000 1.579
74.22000 0.947
74.24000 1.368
74.26000 1.211
74.28000 1.053
74.30000 1.579
74.32000 1.053
74.34000 1.263
74.36000 0.947
74.38000 1.263
74.40000 0.947
74.42000 1.053
74.44000 0.895
74.46000 1.000
74.48000 1.368
74.50000 1.000
74.52000 1.316
74.54000 1.316
74.56000 1.053
74.58000 1.211
74.60000 1.474
74.62000 1.105
74.64000 1.737
74.66000 2.000
74.68000 1.158
74.70000 1.947
74.72000 1.474
74.74000 1.421
74.76000 1.684
74.78000 2.105
74.80000 1.842
74.82000 2.053
74.84000 2.421
74.86000 1.789
74.88000 2.263
74.90000 1.474
74.92000 2.000
74.94000 1.737
74.96000 2.316
74.98000 1.842
75.00000 2.632
75.02000 2.368
75.04000 1.895
75.06000 2.737
75.08000 2.000
75.10000 1.947
75.12000 1.789
75.14000 2.316
75.16000 1.895
75.18000 2.158
75.20000 1.947
75.22000 2.000
75.24000 1.684
75.26000 1.947
75.28000 1.789
75.30000 1.789
75.32000 1.105
75.34000 1.526
75.36000 1.421
75.38000 1.526
75.40000 1.526
75.42000 1.211
75.44000 1.316
75.46000 1.316
75.48000 1.000
75.50000 1.158
75.52000 1.053
75.54000 0.947
75.56000 1.526
75.58000 0.842
75.60000 1.474
75.62000 1.158
75.64000 0.842
75.66000 1.053
75.68000 1.368
75.70000 0.789
75.72000 0.737
75.74000 0.947
75.76000 0.737
75.78000 1.263
75.80000 0.895
75.82000 1.263
75.84000 0.526
75.86000 0.632
75.88000 0.737
75.90000 1.053
75.92000 1.158
75.94000 1.000
75.96000 0.947
75.98000 0.947
76.00000 1.053
76.02000 0.737
76.04000 0.842
76.06000 0.947
76.08000 0.947
76.10000 1.105
76.12000 0.895
76.14000 1.105
76.16000 0.895
76.18000 0.632
76.20000 1.105
76.22000 0.632
76.24000 0.895
76.26000 0.737
76.28000 0.737
76.30000 0.632
76.32000 0.526
76.34000 0.947
76.36000 0.789
76.38000 1.000
76.40000 1.263
76.42000 1.737
76.44000 1.000
76.46000 1.105
76.48000 1.263
76.50000 1.211
76.52000 1.789
76.54000 1.526
76.56000 1.053
76.58000 1.000
76.60000 1.421
76.62000 1.316
76.64000 1.368
76.66000 1.211
76.68000 1.684
76.70000 1.737
76.72000 1.789
76.74000 2.474
76.76000 2.158
76.78000 2.684
76.80000 1.789
76.82000 2.000
76.84000 2.632
76.86000 1.947
76.88000 2.263
76.90000 1.895
76.92000 3.053
76.94000 2.842
76.96000 3.000
76.98000 2.579
77.00000 2.632
77.02000 2.579
77.04000 2.316
77.06000 3.211
77.08000 3.579
77.10000 3.316
77.12000 2.579
77.14000 3.053
77.16000 3.158
77.18000 2.684
77.20000 2.368
77.22000 3.000
77.24000 3.158
77.26000 2.895
77.28000 2.526
77.30000 2.684
77.32000 2.842
77.34000 2.684
77.36000 2.895
77.38000 2.368
77.40000 2.526
77.42000 2.421
77.44000 2.000
77.46000 2.263
77.48000 2.053
77.50000 2.579
77.52000 2.105
77.54000 1.947
77.56000 1.421
77.58000 1.842
77.60000 1.789
77.62000 1.526
77.64000 2.053
77.66000 1.579
77.68000 1.842
77.70000 1.895
77.72000 1.421
77.74000 1.421
77.76000 1.421
77.78000 1.474
77.80000 1.368
77.82000 1.316
77.84000 1.421
77.86000 1.211
77.88000 1.842
77.90000 1.158
77.92000 1.000
77.94000 1.105
77.96000 0.947
77.98000 1.211
78.00000 1.211
78.02000 0.947
78.04000 1.579
78.06000 0.684
78.08000 1.263
78.10000 0.895
78.12000 1.158
78.14000 1.000
78.16000 1.421
78.18000 0.737
78.20000 1.421
78.22000 0.789
78.24000 1.053
78.26000 0.947
78.28000 1.158
78.30000 0.632
78.32000 0.789
78.34000 0.737
78.36000 0.895
78.38000 1.105
78.40000 1.053
78.42000 0.842
78.44000 0.579
78.46000 0.421
78.48000 0.789
78.50000 1.105
78.52000 1.263
78.54000 1.105
78.56000 0.789
78.58000 0.684
78.60000 0.842
78.62000 0.737
78.64000 0.895
78.66000 1.053
78.68000 0.895
78.70000 0.526
78.72000 1.105
78.74000 0.842
78.76000 0.842
78.78000 0.526
78.80000 0.895
78.82000 0.737
78.84000 0.842
78.86000 1.000
78.88000 0.789
78.90000 1.263
78.92000 1.053
78.94000 1.263
78.96000 0.737
78.98000 0.579
79.00000 1.316
79.02000 1.105
79.04000 1.000
79.06000 1.263
79.08000 0.947
79.10000 1.105
79.12000 1.000
79.14000 0.895
79.16000 1.105
79.18000 0.895
79.20000 1.211
79.22000 1.632
79.24000 1.053
79.26000 1.053
79.28000 1.105
79.30000 0.737
79.32000 0.684
79.34000 0.684
79.36000 1.053
79.38000 0.526
79.40000 1.263
79.42000 1.316
79.44000 0.895
79.46000 1.316
79.48000 1.316
79.50000 0.737
79.52000 1.737
79.54000 0.789
79.56000 0.789
79.58000 1.526
79.60000 0.737
79.62000 0.895
79.64000 1.158
79.66000 0.737
79.68000 1.684
79.70000 1.474
79.72000 1.211
79.74000 1.368
79.76000 1.737
79.78000 1.263
79.80000 1.947
79.82000 1.895
79.84000 1.895
79.86000 1.737
79.88000 1.632
79.90000 1.737
79.92000 2.684
79.94000 2.316
79.96000 1.947
79.98000 2.263
80.00000 2.526
