'Id: "COMMANDER Sample ID" Comment: "" Operator: "Lab Manager" Anode: "Cu" Wavelength: "1.5406" Scantype: "2Theta (TwoTheta)" TimePerStep: "18.5" X: "2" Y: "2" Z: "7.449" 
20.00000 4.811
20.02000 4.486
20.04000 5.189
20.06000 4.811
20.08000 3.892
20.10000 5.297
20.12000 5.243
20.14000 5.405
20.16000 5.027
20.18000 5.081
20.20000 4.541
20.22000 5.189
20.24000 5.568
20.26000 4.919
20.28000 4.811
20.30000 5.135
20.32000 5.135
20.34000 4.432
20.36000 4.649
20.38000 4.541
20.40000 4.432
20.42000 4.757
20.44000 5.568
20.46000 5.243
20.48000 5.784
20.50000 4.973
20.52000 4.919
20.54000 4.595
20.56000 4.270
20.58000 4.541
20.60000 4.649
20.62000 4.324
20.64000 5.135
20.66000 4.541
20.68000 4.162
20.70000 4.865
20.72000 4.432
20.74000 4.216
20.76000 4.054
20.78000 4.865
20.80000 4.541
20.82000 5.135
20.84000 4.216
20.86000 4.757
20.88000 4.216
20.90000 4.757
20.92000 4.811
20.94000 4.919
20.96000 5.189
20.98000 5.405
21.00000 5.514
21.02000 4.162
21.04000 4.378
21.06000 4.595
21.08000 4.973
21.10000 5.405
21.12000 4.541
21.14000 3.946
21.16000 5.027
21.18000 5.189
21.20000 4.378
21.22000 4.000
21.24000 4.595
21.26000 3.838
21.28000 4.216
21.30000 4.378
21.32000 5.459
21.34000 3.405
21.36000 3.892
21.38000 4.595
21.40000 4.649
21.42000 4.865
21.44000 4.865
21.46000 4.108
21.48000 5.189
21.50000 4.216
21.52000 4.649
21.54000 4.541
21.56000 5.027
21.58000 4.811
21.60000 5.459
21.62000 4.162
21.64000 3.676
21.66000 4.541
21.68000 5.946
21.70000 4.811
21.72000 4.703
21.74000 4.649
21.76000 5.351
21.78000 5.081
21.80000 5.568
21.82000 5.730
21.84000 5.568
21.86000 5.946
21.88000 5.622
21.90000 5.730
21.92000 6.486
21.94000 6.054
21.96000 6.216
21.98000 5.892
22.00000 6.541
22.02000 6.919
22.04000 6.378
22.06000 6.486
22.08000 6.757
22.10000 6.270
22.12000 6.162
22.14000 5.784
22.16000 5.297
22.18000 5.405
22.20000 5.514
22.22000 4.811
22.24000 5.351
22.26000 5.459
22.28000 4.865
22.30000 3.730
22.32000 5.514
22.34000 4.811
22.36000 4.649
22.38000 5.081
22.40000 4.324
22.42000 4.162
22.44000 4.486
22.46000 5.135
22.48000 4.486
22.50000 4.595
22.52000 5.081
22.54000 5.081
22.56000 4.649
22.58000 4.270
22.60000 5.243
22.62000 4.270
22.64000 4.811
22.66000 4.541
22.68000 4.811
22.70000 3.946
22.72000 4.595
22.74000 4.216
22.76000 5.027
22.78000 4.216
22.80000 4.270
22.82000 4.432
22.84000 4.865
22.86000 4.216
22.88000 4.108
22.90000 4.486
22.92000 4.432
22.94000 4.649
22.96000 4.811
22.98000 4.973
23.00000 4.270
23.02000 4.432
23.04000 5.135
23.06000 4.541
23.08000 4.054
23.10000 4.216
23.12000 5.135
23.14000 4.541
23.16000 4.919
23.18000 4.811
23.20000 3.784
23.22000 4.000
23.24000 4.054
23.26000 4.486
23.28000 4.216
23.30000 4.486
23.32000 4.486
23.34000 4.378
23.36000 4.541
23.38000 3.784
23.40000 5.135
23.42000 4.324
23.44000 5.135
23.46000 4.054
23.48000 4.216
23.50000 4.703
23.52000 4.324
23.54000 4.757
23.56000 4.973
23.58000 3.622
23.60000 4.324
23.62000 4.000
23.64000 4.216
23.66000 4.378
23.68000 5.081
23.70000 4.216
23.72000 5.459
23.74000 3.892
23.76000 4.541
23.78000 4.757
23.80000 4.108
23.82000 3.946
23.84000 5.405
23.86000 4.973
23.88000 4.378
23.90000 3.892
23.92000 4.162
23.94000 3.784
23.96000 4.649
23.98000 4.000
24.00000 4.324
24.02000 5.081
24.04000 4.162
24.06000 5.189
24.08000 4.703
24.10000 4.270
24.12000 4.378
24.14000 4.595
24.16000 4.486
24.18000 5.405
24.20000 4.973
24.22000 4.703
24.24000 4.703
24.26000 4.162
24.28000 4.865
24.30000 4.378
24.32000 4.270
24.34000 4.162
24.36000 5.081
24.38000 4.649
24.40000 4.973
24.42000 3.838
24.44000 4.216
24.46000 4.378
24.48000 4.703
24.50000 4.162
24.52000 5.568
24.54000 4.649
24.56000 5.297
24.58000 4.108
24.60000 5.243
24.62000 4.811
24.64000 5.081
24.66000 4.432
24.68000 3.946
24.70000 4.703
24.72000 4.378
24.74000 4.919
24.76000 4.865
24.78000 4.486
24.80000 4.054
24.82000 4.324
24.84000 5.027
24.86000 4.865
24.88000 5.568
24.90000 5.135
24.92000 5.405
24.94000 4.865
24.96000 5.081
24.98000 4.324
25.00000 4.703
25.02000 5.568
25.04000 4.270
25.06000 4.973
25.08000 5.243
25.10000 4.973
25.12000 5.081
25.14000 4.703
25.16000 5.243
25.18000 5.297
25.20000 4.649
25.22000 5.189
25.24000 5.351
25.26000 5.514
25.28000 4.649
25.30000 5.784
25.32000 5.405
25.34000 5.459
25.36000 5.514
25.38000 4.649
25.40000 4.919
25.42000 5.297
25.44000 4.919
25.46000 5.189
25.48000 5.459
25.50000 5.027
25.52000 5.081
25.54000 4.973
25.56000 5.676
25.58000 5.297
25.60000 5.351
25.62000 5.730
25.64000 5.189
25.66000 6.054
25.68000 5.027
25.70000 5.568
25.72000 6.000
25.74000 6.000
25.76000 6.054
25.78000 4.919
25.80000 5.892
25.82000 4.649
25.84000 5.189
25.86000 4.919
25.88000 4.973
25.90000 6.486
25.92000 6.378
25.94000 5.459
25.96000 5.514
25.98000 6.000
26.00000 5.892
26.02000 5.622
26.04000 5.405
26.06000 5.135
26.08000 6.000
26.10000 5.946
26.12000 5.081
26.14000 5.730
26.16000 6.703
26.18000 5.514
26.20000 6.108
26.22000 5.784
26.24000 5.081
26.26000 4.595
26.28000 4.865
26.30000 4.541
26.32000 4.757
26.34000 5.081
26.36000 5.027
26.38000 4.703
26.40000 4.919
26.42000 4.811
26.44000 4.811
26.46000 4.432
26.48000 5.081
26.50000 5.027
26.52000 5.081
26.54000 4.973
26.56000 4.432
26.58000 5.351
26.60000 4.811
26.62000 4.919
26.64000 5.189
26.66000 5.081
26.68000 5.351
26.70000 4.811
26.72000 4.216
26.74000 4.486
26.76000 5.189
26.78000 5.405
26.80000 4.973
26.82000 4.108
26.84000 4.108
26.86000 4.378
26.88000 4.541
26.90000 3.676
26.92000 4.865
26.94000 3.622
26.96000 3.351
26.98000 3.730
27.00000 5.027
27.02000 5.081
27.04000 4.757
27.06000 3.730
27.08000 4.541
27.10000 4.865
27.12000 3.892
27.14000 5.027
27.16000 3.838
27.18000 4.270
27.20000 4.595
27.22000 4.541
27.24000 4.324
27.26000 5.081
27.28000 4.541
27.30000 3.622
27.32000 5.081
27.34000 4.162
27.36000 4.432
27.38000 4.432
27.40000 3.946
27.42000 3.622
27.44000 4.216
27.46000 3.784
27.48000 4.108
27.50000 4.270
27.52000 4.378
27.54000 3.730
27.56000 2.757
27.58000 2.378
27.60000 4.216
27.62000 4.486
27.64000 3.838
27.66000 3.784
27.68000 4.000
27.70000 4.000
27.72000 3.027
27.74000 3.784
27.76000 2.865
27.78000 4.054
27.80000 4.649
27.82000 3.622
27.84000 3.838
27.86000 3.838
27.88000 3.351
27.90000 2.865
27.92000 3.243
27.94000 3.946
27.96000 3.243
27.98000 3.568
28.00000 3.838
28.02000 3.784
28.04000 2.973
28.06000 4.000
28.08000 3.676
28.10000 3.297
28.12000 2.973
28.14000 3.243
28.16000 3.838
28.18000 4.108
28.20000 3.135
28.22000 3.946
28.24000 3.568
28.26000 3.514
28.28000 3.351
28.30000 3.405
28.32000 3.568
28.34000 3.730
28.36000 3.135
28.38000 3.297
28.40000 3.514
28.42000 3.351
28.44000 3.027
28.46000 3.351
28.48000 2.649
28.50000 3.081
28.52000 3.568
28.54000 3.081
28.56000 3.189
28.58000 3.568
28.60000 2.973
28.62000 3.784
28.64000 3.351
28.66000 3.243
28.68000 4.000
28.70000 2.865
28.72000 3.405
28.74000 3.351
28.76000 2.811
28.78000 2.432
28.80000 4.054
28.82000 2.541
28.84000 2.865
28.86000 3.243
28.88000 3.351
28.90000 3.243
28.92000 4.162
28.94000 3.081
28.96000 3.135
28.98000 3.514
29.00000 2.973
29.02000 2.649
29.04000 3.297
29.06000 4.162
29.08000 3.892
29.10000 3.892
29.12000 2.432
29.14000 2.811
29.16000 4.108
29.18000 2.811
29.20000 2.757
29.22000 2.811
29.24000 2.919
29.26000 3.027
29.28000 2.919
29.30000 3.243
29.32000 2.000
29.34000 2.757
29.36000 3.351
29.38000 3.459
29.40000 3.514
29.42000 3.243
29.44000 3.297
29.46000 3.297
29.48000 3.189
29.50000 3.838
29.52000 1.892
29.54000 2.595
29.56000 2.865
29.58000 3.081
29.60000 2.973
29.62000 2.973
29.64000 3.676
29.66000 2.865
29.68000 3.568
29.70000 3.514
29.72000 3.027
29.74000 2.595
29.76000 3.189
29.78000 3.351
29.80000 3.297
29.82000 3.027
29.84000 2.649
29.86000 2.703
29.88000 3.351
29.90000 3.243
29.92000 3.243
29.94000 2.973
29.96000 2.865
29.98000 2.432
30.00000 3.297
30.02000 2.865
30.04000 2.324
30.06000 2.757
30.08000 2.973
30.10000 3.405
30.12000 2.486
30.14000 2.486
30.16000 3.568
30.18000 3.243
30.20000 2.595
30.22000 2.541
30.24000 2.108
30.26000 3.027
30.28000 2.757
30.30000 2.865
30.32000 3.351
30.34000 2.757
30.36000 4.108
30.38000 3.676
30.40000 3.730
30.42000 3.243
30.44000 2.811
30.46000 3.081
30.48000 3.405
30.50000 3.027
30.52000 3.405
30.54000 3.514
30.56000 2.649
30.58000 4.054
30.60000 3.459
30.62000 3.189
30.64000 2.919
30.66000 2.757
30.68000 3.459
30.70000 3.892
30.72000 3.081
30.74000 3.405
30.76000 3.568
30.78000 3.351
30.80000 4.054
30.82000 3.297
30.84000 2.378
30.86000 4.324
30.88000 3.568
30.90000 3.351
30.92000 3.351
30.94000 3.568
30.96000 4.216
30.98000 4.541
31.00000 3.784
31.02000 3.946
31.04000 5.027
31.06000 5.135
31.08000 4.595
31.10000 4.649
31.12000 6.000
31.14000 6.324
31.16000 7.351
31.18000 6.595
31.20000 6.811
31.22000 6.811
31.24000 8.108
31.26000 9.351
31.28000 7.459
31.30000 8.432
31.32000 8.378
31.34000 7.135
31.36000 5.946
31.38000 5.730
31.40000 5.189
31.42000 5.459
31.44000 4.324
31.46000 4.162
31.48000 4.649
31.50000 4.649
31.52000 4.919
31.54000 3.730
31.56000 3.784
31.58000 3.459
31.60000 3.135
31.62000 3.514
31.64000 2.486
31.66000 4.162
31.68000 2.270
31.70000 2.649
31.72000 3.135
31.74000 2.919
31.76000 3.459
31.78000 3.243
31.80000 2.757
31.82000 3.081
31.84000 3.081
31.86000 3.081
31.88000 3.135
31.90000 3.135
31.92000 3.297
31.94000 2.703
31.96000 2.757
31.98000 3.243
32.00000 3.459
32.02000 2.649
32.04000 2.973
32.06000 2.216
32.08000 3.297
32.10000 2.811
32.12000 3.351
32.14000 2.757
32.16000 3.189
32.18000 2.919
32.20000 3.297
32.22000 2.432
32.24000 3.622
32.26000 2.757
32.28000 3.027
32.30000 3.189
32.32000 2.432
32.34000 3.135
32.36000 3.135
32.38000 3.568
32.40000 3.027
32.42000 3.459
32.44000 3.243
32.46000 3.622
32.48000 4.216
32.50000 3.243
32.52000 4.000
32.54000 3.568
32.56000 3.568
32.58000 3.297
32.60000 4.541
32.62000 4.108
32.64000 4.000
32.66000 5.189
32.68000 5.189
32.70000 4.919
32.72000 4.865
32.74000 6.270
32.76000 6.054
32.78000 6.162
32.80000 5.838
32.82000 5.946
32.84000 5.730
32.86000 4.973
32.88000 4.703
32.90000 4.757
32.92000 4.541
32.94000 4.324
32.96000 3.514
32.98000 3.946
33.00000 3.081
33.02000 4.054
33.04000 2.919
33.06000 3.027
33.08000 3.027
33.10000 3.730
33.12000 2.486
33.14000 2.595
33.16000 3.243
33.18000 2.865
33.20000 2.595
33.22000 2.703
33.24000 3.189
33.26000 3.351
33.28000 2.432
33.30000 2.865
33.32000 3.189
33.34000 2.919
33.36000 2.649
33.38000 2.541
33.40000 2.865
33.42000 2.973
33.44000 2.595
33.46000 2.541
33.48000 2.703
33.50000 3.081
33.52000 2.270
33.54000 2.757
33.56000 3.459
33.58000 3.027
33.60000 3.027
33.62000 2.649
33.64000 3.027
33.66000 2.703
33.68000 2.865
33.70000 2.703
33.72000 2.378
33.74000 2.378
33.76000 2.378
33.78000 2.432
33.80000 2.973
33.82000 2.973
33.84000 2.865
33.86000 2.595
33.88000 2.757
33.90000 2.973
33.92000 2.973
33.94000 2.324
33.96000 2.595
33.98000 2.486
34.00000 3.297
34.02000 2.865
34.04000 2.919
34.06000 2.486
34.08000 2.162
34.10000 3.189
34.12000 2.108
34.14000 2.541
34.16000 3.189
34.18000 2.595
34.20000 2.595
34.22000 1.946
34.24000 2.324
34.26000 2.757
34.28000 2.378
34.30000 2.541
34.32000 3.189
34.34000 2.162
34.36000 3.027
34.38000 2.649
34.40000 2.486
34.42000 3.243
34.44000 2.811
34.46000 2.919
34.48000 3.459
34.50000 2.108
34.52000 2.919
34.54000 3.243
34.56000 2.216
34.58000 2.541
34.60000 2.108
34.62000 2.432
34.64000 2.865
34.66000 2.649
34.68000 2.541
34.70000 2.757
34.72000 2.973
34.74000 2.541
34.76000 2.919
34.78000 3.514
34.80000 2.595
34.82000 2.541
34.84000 2.811
34.86000 2.757
34.88000 3.027
34.90000 1.946
34.92000 2.378
34.94000 2.811
34.96000 2.811
34.98000 2.811
35.00000 3.027
35.02000 2.649
35.04000 3.027
35.06000 2.757
35.08000 2.432
35.10000 2.595
35.12000 2.270
35.14000 2.378
35.16000 2.486
35.18000 2.595
35.20000 2.000
35.22000 2.865
35.24000 2.216
35.26000 2.541
35.28000 2.108
35.30000 2.595
35.32000 2.595
35.34000 2.486
35.36000 2.486
35.38000 2.486
35.40000 2.432
35.42000 3.189
35.44000 3.027
35.46000 1.946
35.48000 2.919
35.50000 2.595
35.52000 2.541
35.54000 1.892
35.56000 3.568
35.58000 2.919
35.60000 2.811
35.62000 3.027
35.64000 3.351
35.66000 2.541
35.68000 2.486
35.70000 3.027
35.72000 2.541
35.74000 2.162
35.76000 2.270
35.78000 2.324
35.80000 2.216
35.82000 2.865
35.84000 2.108
35.86000 2.595
35.88000 3.027
35.90000 2.811
35.92000 3.405
35.94000 2.649
35.96000 2.378
35.98000 2.703
36.00000 3.568
36.02000 2.432
36.04000 3.946
36.06000 3.081
36.08000 3.027
36.10000 2.703
36.12000 3.676
36.14000 3.892
36.16000 4.000
36.18000 2.973
36.20000 2.865
36.22000 3.514
36.24000 3.459
36.26000 2.703
36.28000 3.297
36.30000 3.568
36.32000 2.811
36.34000 2.486
36.36000 2.919
36.38000 2.703
36.40000 2.919
36.42000 2.973
36.44000 2.973
36.46000 2.541
36.48000 2.919
36.50000 2.811
36.52000 2.973
36.54000 2.432
36.56000 2.541
36.58000 2.324
36.60000 2.649
36.62000 2.216
36.64000 2.054
36.66000 2.649
36.68000 2.378
36.70000 2.649
36.72000 2.054
36.74000 2.865
36.76000 1.838
36.78000 2.649
36.80000 2.432
36.82000 2.270
36.84000 2.595
36.86000 2.649
36.88000 2.541
36.90000 2.919
36.92000 3.514
36.94000 2.378
36.96000 2.486
36.98000 3.622
37.00000 3.027
37.02000 2.703
37.04000 3.027
37.06000 2.649
37.08000 2.919
37.10000 2.432
37.12000 2.595
37.14000 2.703
37.16000 3.135
37.18000 2.541
37.20000 2.432
37.22000 2.865
37.24000 2.486
37.26000 2.541
37.28000 3.189
37.30000 2.757
37.32000 2.216
37.34000 2.216
37.36000 2.541
37.38000 2.486
37.40000 2.649
37.42000 2.811
37.44000 2.378
37.46000 2.595
37.48000 2.324
37.50000 2.541
37.52000 2.811
37.54000 2.973
37.56000 2.432
37.58000 2.054
37.60000 1.676
37.62000 2.703
37.64000 2.757
37.66000 2.703
37.68000 2.378
37.70000 2.270
37.72000 1.568
37.74000 3.297
37.76000 2.811
37.78000 2.703
37.80000 2.216
37.82000 2.811
37.84000 2.757
37.86000 2.649
37.88000 3.189
37.90000 2.054
37.92000 2.270
37.94000 2.757
37.96000 2.649
37.98000 2.649
38.00000 2.865
38.02000 3.027
38.04000 2.486
38.06000 3.189
38.08000 2.486
38.10000 2.378
38.12000 2.811
38.14000 3.243
38.16000 2.000
38.18000 2.162
38.20000 1.568
38.22000 2.162
38.24000 2.811
38.26000 2.378
38.28000 2.865
38.30000 2.649
38.32000 2.757
38.34000 3.027
38.36000 2.108
38.38000 2.432
38.40000 2.703
38.42000 3.676
38.44000 2.432
38.46000 1.946
38.48000 2.432
38.50000 1.838
38.52000 2.541
38.54000 2.432
38.56000 2.865
38.58000 3.027
38.60000 2.703
38.62000 2.595
38.64000 2.378
38.66000 1.838
38.68000 2.486
38.70000 2.216
38.72000 2.541
38.74000 2.919
38.76000 2.757
38.78000 2.216
38.80000 2.595
38.82000 2.054
38.84000 2.216
38.86000 2.162
38.88000 2.757
38.90000 3.135
38.92000 2.541
38.94000 2.270
38.96000 2.054
38.98000 1.892
39.00000 2.757
39.02000 2.865
39.04000 3.189
39.06000 2.486
39.08000 2.216
39.10000 2.973
39.12000 2.973
39.14000 2.649
39.16000 3.135
39.18000 3.135
39.20000 2.162
39.22000 3.135
39.24000 3.027
39.26000 3.027
39.28000 3.081
39.30000 3.135
39.32000 3.568
39.34000 3.676
39.36000 3.946
39.38000 2.973
39.40000 4.595
39.42000 3.838
39.44000 3.622
39.46000 4.216
39.48000 5.081
39.50000 5.243
39.52000 5.081
39.54000 4.811
39.56000 5.568
39.58000 6.216
39.60000 6.216
39.62000 8.378
39.64000 8.000
39.66000 7.730
39.68000 7.946
39.70000 10.324
39.72000 10.811
39.74000 10.919
39.76000 12.432
39.78000 11.730
39.80000 9.838
39.82000 12.919
39.84000 11.027
39.86000 11.351
39.88000 10.324
39.90000 9.568
39.92000 8.541
39.94000 7.135
39.96000 7.568
39.98000 6.595
40.00000 5.081
40.02000 4.865
40.04000 4.811
40.06000 4.432
40.08000 4.000
40.10000 4.054
40.12000 3.568
40.14000 3.784
40.16000 4.324
40.18000 3.297
40.20000 3.027
40.22000 3.568
40.24000 3.351
40.26000 3.459
40.28000 2.486
40.30000 3.243
40.32000 2.541
40.34000 2.757
40.36000 3.135
40.38000 3.081
40.40000 2.649
40.42000 3.081
40.44000 2.000
40.46000 2.973
40.48000 3.568
40.50000 2.432
40.52000 2.649
40.54000 3.243
40.56000 2.595
40.58000 2.432
40.60000 2.703
40.62000 3.027
40.64000 2.216
40.66000 1.946
40.68000 2.649
40.70000 3.243
40.72000 2.649
40.74000 1.676
40.76000 2.595
40.78000 2.108
40.80000 2.108
40.82000 2.649
40.84000 2.108
40.86000 2.649
40.88000 3.297
40.90000 2.973
40.92000 2.865
40.94000 3.730
40.96000 2.486
40.98000 1.730
41.00000 3.135
41.02000 3.297
41.04000 3.297
41.06000 3.243
41.08000 2.811
41.10000 2.757
41.12000 2.649
41.14000 2.703
41.16000 2.324
41.18000 2.324
41.20000 2.378
41.22000 2.595
41.24000 2.973
41.26000 2.595
41.28000 2.757
41.30000 1.946
41.32000 2.757
41.34000 3.189
41.36000 2.432
41.38000 2.919
41.40000 3.351
41.42000 2.108
41.44000 2.000
41.46000 3.514
41.48000 2.973
41.50000 3.351
41.52000 2.541
41.54000 1.946
41.56000 3.189
41.58000 3.405
41.60000 2.757
41.62000 3.135
41.64000 4.162
41.66000 2.811
41.68000 2.541
41.70000 2.919
41.72000 2.108
41.74000 3.838
41.76000 3.027
41.78000 3.568
41.80000 2.973
41.82000 3.243
41.84000 3.784
41.86000 3.405
41.88000 3.189
41.90000 3.459
41.92000 3.730
41.94000 2.757
41.96000 3.892
41.98000 2.703
42.00000 3.459
42.02000 3.081
42.04000 4.000
42.06000 3.459
42.08000 3.351
42.10000 4.216
42.12000 3.946
42.14000 3.405
42.16000 3.892
42.18000 2.216
42.20000 4.541
42.22000 4.811
42.24000 5.081
42.26000 4.378
42.28000 4.811
42.30000 6.270
42.32000 6.270
42.34000 5.676
42.36000 5.730
42.38000 6.108
42.40000 7.676
42.42000 8.378
42.44000 7.405
42.46000 8.216
42.48000 9.027
42.50000 9.405
42.52000 10.054
42.54000 11.838
42.56000 13.243
42.58000 14.324
42.60000 15.676
42.62000 17.730
42.64000 18.216
42.66000 16.378
42.68000 20.162
42.70000 21.568
42.72000 22.324
42.74000 21.243
42.76000 23.189
42.78000 23.243
42.80000 22.216
42.82000 20.703
42.84000 20.270
42.86000 21.081
42.88000 15.784
42.90000 18.000
42.92000 15.838
42.94000 12.757
42.96000 12.486
42.98000 11.459
43.00000 11.243
43.02000 10.432
43.04000 9.459
43.06000 8.595
43.08000 8.541
43.10000 8.865
43.12000 8.432
43.14000 6.919
43.16000 7.081
43.18000 7.243
43.20000 7.081
43.22000 7.568
43.24000 8.162
43.26000 7.730
43.28000 9.135
43.30000 8.649
43.32000 7.459
43.34000 10.865
43.36000 8.865
43.38000 10.162
43.40000 9.514
43.42000 11.459
43.44000 12.108
43.46000 11.297
43.48000 12.270
43.50000 13.351
43.52000 14.541
43.54000 17.838
43.56000 17.243
43.58000 19.730
43.60000 22.216
43.62000 25.027
43.64000 25.730
43.66000 30.865
43.68000 34.000
43.70000 34.486
43.72000 39.189
43.74000 40.865
43.76000 46.919
43.78000 48.432
43.80000 53.784
43.82000 55.568
43.84000 57.676
43.86000 56.162
43.88000 55.676
43.90000 59.568
43.92000 56.757
43.94000 53.514
43.96000 47.838
43.98000 45.784
44.00000 42.757
44.02000 36.811
44.04000 36.811
44.06000 30.324
44.08000 23.676
44.10000 22.865
44.12000 19.189
44.14000 17.838
44.16000 17.568
44.18000 14.378
44.20000 16.649
44.22000 14.216
44.24000 13.297
44.26000 13.459
44.28000 13.514
44.30000 12.811
44.32000 11.892
44.34000 12.703
44.36000 14.054
44.38000 16.649
44.40000 14.757
44.42000 17.243
44.44000 18.270
44.46000 18.486
44.48000 20.973
44.50000 22.865
44.52000 24.486
44.54000 27.730
44.56000 29.676
44.58000 33.297
44.60000 32.162
44.62000 36.973
44.64000 38.919
44.66000 38.973
44.68000 41.730
44.70000 45.189
44.72000 42.649
44.74000 43.459
44.76000 42.811
44.78000 37.351
44.80000 35.243
44.82000 37.784
44.84000 32.811
44.86000 28.595
44.88000 26.703
44.90000 23.189
44.92000 21.027
44.94000 18.486
44.96000 16.054
44.98000 16.270
45.00000 13.622
45.02000 12.649
45.04000 11.081
45.06000 10.162
45.08000 10.000
45.10000 9.784
45.12000 11.189
45.14000 7.892
45.16000 8.865
45.18000 9.459
45.20000 8.865
45.22000 8.757
45.24000 9.405
45.26000 9.351
45.28000 9.676
45.30000 10.270
45.32000 9.297
45.34000 9.622
45.36000 11.946
45.38000 12.432
45.40000 14.378
45.42000 13.243
45.44000 16.919
45.46000 18.216
45.48000 19.892
45.50000 20.649
45.52000 23.838
45.54000 25.297
45.56000 25.135
45.58000 31.730
45.60000 33.405
45.62000 36.703
45.64000 41.676
45.66000 46.108
45.68000 47.892
45.70000 55.243
45.72000 62.919
45.74000 64.270
45.76000 67.189
45.78000 70.378
45.80000 77.081
45.82000 76.973
45.84000 76.432
45.86000 74.432
45.88000 76.432
45.90000 75.622
45.92000 69.838
45.94000 65.135
45.96000 62.757
45.98000 56.054
46.00000 50.486
46.02000 45.135
46.04000 39.730
46.06000 34.595
46.08000 31.784
46.10000 28.432
46.12000 23.243
46.14000 20.757
46.16000 15.514
46.18000 15.568
46.20000 13.081
46.22000 11.459
46.24000 10.919
46.26000 10.757
46.28000 9.081
46.30000 8.054
46.32000 8.595
46.34000 7.946
46.36000 7.459
46.38000 6.378
46.40000 6.811
46.42000 5.081
46.44000 5.568
46.46000 5.405
46.48000 4.703
46.50000 5.784
46.52000 4.541
46.54000 4.865
46.56000 4.432
46.58000 4.595
46.60000 4.703
46.62000 4.108
46.64000 4.000
46.66000 4.324
46.68000 4.541
46.70000 4.108
46.72000 3.622
46.74000 2.865
46.76000 4.054
46.78000 3.135
46.80000 4.108
46.82000 2.973
46.84000 4.541
46.86000 2.703
46.88000 4.703
46.90000 3.135
46.92000 3.189
46.94000 3.027
46.96000 3.189
46.98000 3.784
47.00000 3.514
47.02000 3.243
47.04000 3.351
47.06000 4.000
47.08000 3.514
47.10000 2.703
47.12000 3.189
47.14000 3.135
47.16000 2.432
47.18000 3.081
47.20000 2.973
47.22000 3.297
47.24000 3.027
47.26000 2.865
47.28000 3.189
47.30000 2.595
47.32000 3.730
47.34000 3.189
47.36000 3.297
47.38000 3.405
47.40000 2.216
47.42000 2.649
47.44000 2.703
47.46000 2.595
47.48000 2.324
47.50000 2.541
47.52000 2.649
47.54000 1.892
47.56000 2.703
47.58000 2.324
47.60000 2.432
47.62000 2.541
47.64000 2.432
47.66000 2.162
47.68000 2.649
47.70000 2.973
47.72000 2.919
47.74000 1.946
47.76000 2.162
47.78000 2.595
47.80000 2.432
47.82000 2.324
47.84000 2.541
47.86000 1.946
47.88000 3.189
47.90000 1.892
47.92000 2.541
47.94000 2.541
47.96000 2.054
47.98000 2.432
48.00000 3.027
48.02000 1.568
48.04000 2.919
48.06000 1.946
48.08000 2.865
48.10000 1.946
48.12000 2.324
48.14000 2.919
48.16000 2.757
48.18000 2.541
48.20000 1.784
48.22000 2.432
48.24000 2.541
48.26000 2.432
48.28000 2.324
48.30000 1.622
48.32000 2.919
48.34000 2.162
48.36000 2.541
48.38000 2.000
48.40000 2.595
48.42000 2.595
48.44000 2.432
48.46000 3.189
48.48000 2.595
48.50000 2.703
48.52000 2.541
48.54000 2.378
48.56000 2.973
48.58000 2.703
48.60000 3.081
48.62000 2.757
48.64000 1.946
48.66000 2.919
48.68000 2.811
48.70000 3.081
48.72000 3.027
48.74000 2.919
48.76000 3.027
48.78000 3.405
48.80000 3.243
48.82000 3.622
48.84000 3.459
48.86000 3.351
48.88000 4.270
48.90000 3.892
48.92000 4.162
48.94000 3.676
48.96000 4.270
48.98000 4.757
49.00000 4.757
49.02000 5.027
49.04000 5.405
49.06000 5.568
49.08000 5.568
49.10000 6.378
49.12000 6.486
49.14000 6.324
49.16000 6.649
49.18000 8.108
49.20000 8.595
49.22000 8.324
49.24000 9.351
49.26000 8.757
49.28000 8.432
49.30000 8.703
49.32000 10.108
49.34000 11.568
49.36000 11.892
49.38000 12.162
49.40000 15.838
49.42000 18.486
49.44000 18.000
49.46000 19.622
49.48000 21.568
49.50000 22.486
49.52000 23.946
49.54000 24.865
49.56000 27.892
49.58000 27.892
49.60000 27.351
49.62000 27.514
49.64000 27.730
49.66000 25.027
49.68000 24.649
49.70000 21.838
49.72000 19.892
49.74000 18.432
49.76000 17.514
49.78000 14.865
49.80000 13.676
49.82000 12.108
49.84000 9.784
49.86000 9.838
49.88000 10.486
49.90000 8.757
49.92000 6.432
49.94000 6.054
49.96000 5.946
49.98000 5.081
50.00000 5.730
50.02000 4.541
50.04000 4.162
50.06000 3.946
50.08000 5.081
50.10000 3.838
50.12000 3.784
50.14000 3.568
50.16000 3.351
50.18000 2.703
50.20000 2.811
50.22000 3.405
50.24000 2.919
50.26000 2.919
50.28000 3.297
50.30000 3.351
50.32000 2.541
50.34000 2.270
50.36000 2.649
50.38000 2.162
50.40000 2.757
50.42000 2.486
50.44000 2.378
50.46000 3.027
50.48000 2.486
50.50000 2.649
50.52000 2.541
50.54000 2.919
50.56000 2.108
50.58000 2.811
50.60000 2.054
50.62000 2.216
50.64000 2.811
50.66000 2.378
50.68000 2.054
50.70000 2.486
50.72000 2.432
50.74000 2.595
50.76000 2.811
50.78000 1.838
50.80000 2.108
50.82000 2.432
50.84000 2.486
50.86000 2.378
50.88000 1.892
50.90000 2.324
50.92000 2.486
50.94000 2.324
50.96000 2.541
50.98000 2.432
51.00000 1.676
51.02000 3.027
51.04000 2.270
51.06000 2.162
51.08000 1.459
51.10000 3.081
51.12000 2.541
51.14000 2.595
51.16000 2.324
51.18000 2.865
51.20000 2.486
51.22000 2.486
51.24000 2.162
51.26000 2.432
51.28000 3.405
51.30000 2.378
51.32000 2.649
51.34000 2.486
51.36000 2.108
51.38000 2.000
51.40000 2.649
51.42000 2.649
51.44000 2.324
51.46000 2.649
51.48000 2.649
51.50000 1.784
51.52000 2.973
51.54000 2.108
51.56000 1.892
51.58000 2.595
51.60000 2.378
51.62000 2.000
51.64000 1.946
51.66000 2.216
51.68000 2.216
51.70000 1.730
51.72000 1.946
51.74000 2.108
51.76000 1.568
51.78000 1.838
51.80000 1.784
51.82000 2.703
51.84000 1.784
51.86000 1.189
51.88000 1.730
51.90000 1.838
51.92000 2.054
51.94000 2.000
51.96000 2.054
51.98000 1.784
52.00000 2.000
52.02000 2.324
52.04000 1.568
52.06000 1.784
52.08000 1.405
52.10000 1.622
52.12000 1.568
52.14000 1.459
52.16000 2.000
52.18000 1.784
52.20000 2.108
52.22000 1.189
52.24000 1.946
52.26000 1.297
52.28000 1.892
52.30000 1.405
52.32000 2.054
52.34000 1.730
52.36000 1.784
52.38000 1.784
52.40000 1.297
52.42000 1.676
52.44000 1.946
52.46000 1.892
52.48000 1.730
52.50000 1.405
52.52000 1.622
52.54000 2.270
52.56000 1.946
52.58000 1.892
52.60000 1.514
52.62000 1.892
52.64000 1.676
52.66000 1.730
52.68000 1.730
52.70000 2.162
52.72000 1.568
52.74000 1.676
52.76000 2.054
52.78000 1.730
52.80000 2.054
52.82000 1.784
52.84000 1.892
52.86000 2.162
52.88000 2.270
52.90000 1.784
52.92000 2.216
52.94000 2.000
52.96000 1.730
52.98000 1.568
53.00000 2.216
53.02000 1.297
53.04000 2.216
53.06000 2.378
53.08000 2.378
53.10000 2.324
53.12000 2.324
53.14000 1.730
53.16000 2.811
53.18000 2.432
53.20000 2.108
53.22000 2.757
53.24000 1.405
53.26000 2.757
53.28000 2.595
53.30000 3.135
53.32000 3.135
53.34000 3.027
53.36000 3.730
53.38000 3.838
53.40000 3.189
53.42000 4.378
53.44000 4.595
53.46000 4.649
53.48000 4.595
53.50000 5.784
53.52000 5.081
53.54000 7.081
53.56000 6.919
53.58000 7.514
53.60000 9.189
53.62000 7.838
53.64000 10.649
53.66000 10.054
53.68000 10.595
53.70000 9.514
53.72000 10.865
53.74000 11.622
53.76000 11.135
53.78000 11.351
53.80000 11.622
53.82000 9.892
53.84000 11.784
53.86000 11.243
53.88000 11.027
53.90000 10.378
53.92000 8.811
53.94000 8.757
53.96000 7.297
53.98000 6.432
54.00000 7.838
54.02000 5.892
54.04000 5.568
54.06000 5.892
54.08000 5.297
54.10000 4.541
54.12000 4.108
54.14000 3.514
54.16000 3.568
54.18000 3.243
54.20000 3.135
54.22000 2.973
54.24000 2.216
54.26000 3.351
54.28000 2.108
54.30000 2.595
54.32000 2.486
54.34000 1.946
54.36000 2.054
54.38000 2.108
54.40000 2.054
54.42000 2.595
54.44000 1.243
54.46000 2.595
54.48000 2.486
54.50000 2.216
54.52000 2.000
54.54000 2.270
54.56000 1.730
54.58000 2.054
54.60000 2.216
54.62000 2.108
54.64000 1.784
54.66000 1.676
54.68000 1.676
54.70000 1.622
54.72000 2.162
54.74000 1.568
54.76000 1.568
54.78000 1.459
54.80000 1.622
54.82000 1.676
54.84000 1.676
54.86000 1.730
54.88000 2.270
54.90000 1.730
54.92000 1.676
54.94000 2.324
54.96000 1.946
54.98000 1.622
55.00000 2.162
55.02000 1.243
55.04000 2.162
55.06000 1.568
55.08000 2.054
55.10000 1.838
55.12000 2.000
55.14000 2.216
55.16000 2.000
55.18000 2.270
55.20000 2.000
55.22000 2.432
55.24000 2.649
55.26000 1.946
55.28000 2.432
55.30000 3.189
55.32000 2.378
55.34000 3.351
55.36000 2.649
55.38000 2.378
55.40000 3.351
55.42000 3.405
55.44000 2.703
55.46000 3.297
55.48000 3.189
55.50000 3.459
55.52000 3.405
55.54000 2.919
55.56000 2.811
55.58000 2.865
55.60000 2.649
55.62000 1.946
55.64000 3.081
55.66000 3.514
55.68000 2.270
55.70000 2.162
55.72000 2.108
55.74000 2.595
55.76000 2.162
55.78000 2.486
55.80000 1.892
55.82000 1.730
55.84000 1.676
55.86000 2.054
55.88000 1.730
55.90000 2.541
55.92000 1.730
55.94000 2.703
55.96000 2.270
55.98000 1.676
56.00000 2.108
56.02000 1.568
56.04000 1.297
56.06000 1.568
56.08000 2.054
56.10000 1.514
56.12000 1.676
56.14000 1.676
56.16000 1.730
56.18000 1.514
56.20000 1.676
56.22000 2.108
56.24000 2.378
56.26000 2.108
56.28000 1.459
56.30000 1.568
56.32000 1.351
56.34000 2.054
56.36000 1.892
56.38000 1.676
56.40000 1.676
56.42000 2.703
56.44000 2.216
56.46000 2.324
56.48000 2.432
56.50000 2.108
56.52000 3.027
56.54000 2.919
56.56000 2.378
56.58000 2.757
56.60000 2.649
56.62000 2.378
56.64000 2.486
56.66000 3.081
56.68000 2.703
56.70000 3.405
56.72000 3.297
56.74000 3.622
56.76000 3.568
56.78000 4.000
56.80000 3.676
56.82000 4.486
56.84000 4.865
56.86000 5.081
56.88000 6.054
56.90000 5.946
56.92000 5.459
56.94000 6.270
56.96000 6.000
56.98000 7.297
57.00000 6.541
57.02000 7.189
57.04000 7.135
57.06000 6.270
57.08000 6.973
57.10000 6.270
57.12000 6.541
57.14000 5.351
57.16000 5.838
57.18000 6.865
57.20000 4.919
57.22000 4.865
57.24000 4.000
57.26000 4.270
57.28000 4.000
57.30000 3.784
57.32000 3.189
57.34000 2.703
57.36000 2.703
57.38000 3.189
57.40000 2.054
57.42000 2.486
57.44000 2.811
57.46000 2.649
57.48000 2.378
57.50000 1.676
57.52000 2.216
57.54000 1.838
57.56000 1.514
57.58000 1.892
57.60000 2.000
57.62000 1.135
57.64000 1.676
57.66000 1.892
57.68000 2.378
57.70000 1.297
57.72000 2.108
57.74000 1.514
57.76000 1.351
57.78000 1.459
57.80000 1.459
57.82000 1.784
57.84000 1.459
57.86000 1.351
57.88000 1.514
57.90000 1.297
57.92000 2.216
57.94000 1.838
57.96000 1.622
57.98000 1.514
58.00000 2.216
58.02000 1.297
58.04000 1.514
58.06000 1.622
58.08000 1.459
58.10000 1.838
58.12000 1.351
58.14000 1.459
58.16000 1.297
58.18000 1.405
58.20000 1.838
58.22000 2.054
58.24000 1.568
58.26000 1.622
58.28000 1.568
58.30000 1.568
58.32000 1.622
58.34000 1.135
58.36000 1.459
58.38000 1.405
58.40000 1.405
58.42000 1.135
58.44000 1.730
58.46000 1.568
58.48000 1.946
58.50000 1.351
58.52000 1.892
58.54000 1.730
58.56000 1.405
58.58000 1.514
58.60000 1.622
58.62000 1.568
58.64000 1.838
58.66000 2.054
58.68000 1.568
58.70000 2.162
58.72000 1.892
58.74000 1.946
58.76000 2.108
58.78000 1.730
58.80000 1.622
58.82000 1.568
58.84000 1.459
58.86000 1.838
58.88000 1.730
58.90000 1.892
58.92000 1.622
58.94000 1.243
58.96000 1.730
58.98000 1.243
59.00000 1.459
59.02000 1.622
59.04000 1.459
59.06000 2.108
59.08000 1.730
59.10000 2.649
59.12000 1.946
59.14000 1.838
59.16000 1.892
59.18000 2.216
59.20000 2.811
59.22000 2.108
59.24000 2.649
59.26000 2.054
59.28000 2.703
59.30000 2.216
59.32000 2.162
59.34000 2.324
59.36000 3.027
59.38000 2.811
59.40000 2.811
59.42000 2.919
59.44000 3.027
59.46000 2.595
59.48000 2.865
59.50000 3.243
59.52000 2.649
59.54000 4.595
59.56000 4.216
59.58000 3.081
59.60000 4.216
59.62000 5.243
59.64000 4.162
59.66000 4.649
59.68000 3.135
59.70000 3.730
59.72000 3.784
59.74000 3.243
59.76000 4.108
59.78000 3.838
59.80000 3.784
59.82000 3.189
59.84000 2.919
59.86000 2.973
59.88000 1.946
59.90000 2.919
59.92000 2.703
59.94000 2.757
59.96000 2.216
59.98000 2.108
60.00000 2.757
60.02000 2.486
60.04000 2.378
60.06000 2.432
60.08000 2.054
60.10000 1.838
60.12000 1.730
60.14000 1.622
60.16000 1.892
60.18000 1.946
60.20000 1.676
60.22000 1.784
60.24000 2.000
60.26000 1.838
60.28000 1.676
60.30000 1.676
60.32000 1.730
60.34000 1.351
60.36000 2.432
60.38000 1.730
60.40000 1.351
60.42000 2.162
60.44000 2.378
60.46000 1.622
60.48000 1.514
60.50000 2.054
60.52000 1.784
60.54000 1.676
60.56000 1.730
60.58000 2.324
60.60000 1.838
60.62000 2.054
60.64000 1.405
60.66000 1.568
60.68000 1.676
60.70000 1.784
60.72000 1.568
60.74000 2.432
60.76000 1.838
60.78000 1.622
60.80000 1.514
60.82000 1.622
60.84000 1.405
60.86000 1.892
60.88000 1.622
60.90000 1.838
60.92000 1.892
60.94000 1.946
60.96000 2.649
60.98000 2.054
61.00000 1.568
61.02000 2.162
61.04000 2.216
61.06000 2.000
61.08000 2.162
61.10000 2.324
61.12000 1.676
61.14000 2.595
61.16000 2.432
61.18000 2.757
61.20000 2.270
61.22000 2.378
61.24000 2.757
61.26000 2.757
61.28000 2.432
61.30000 3.892
61.32000 3.135
61.34000 2.757
61.36000 2.865
61.38000 3.135
61.40000 2.865
61.42000 2.595
61.44000 3.027
61.46000 3.351
61.48000 2.865
61.50000 3.676
61.52000 3.514
61.54000 3.838
61.56000 3.081
61.58000 3.514
61.60000 3.892
61.62000 3.351
61.64000 3.784
61.66000 4.486
61.68000 3.514
61.70000 4.432
61.72000 5.297
61.74000 4.703
61.76000 5.730
61.78000 6.000
61.80000 6.270
61.82000 4.486
61.84000 5.459
61.86000 6.162
61.88000 4.703
61.90000 5.081
61.92000 5.243
61.94000 4.541
61.96000 4.757
61.98000 3.730
62.00000 3.946
62.02000 3.405
62.04000 3.459
62.06000 3.189
62.08000 3.135
62.10000 2.703
62.12000 2.649
62.14000 2.108
62.16000 2.378
62.18000 2.486
62.20000 2.649
62.22000 2.919
62.24000 2.000
62.26000 2.054
62.28000 2.162
62.30000 1.892
62.32000 2.270
62.34000 2.000
62.36000 1.514
62.38000 2.270
62.40000 1.568
62.42000 1.351
62.44000 1.514
62.46000 1.568
62.48000 2.054
62.50000 2.216
62.52000 2.378
62.54000 1.189
62.56000 1.243
62.58000 1.189
62.60000 1.514
62.62000 1.730
62.64000 1.459
62.66000 2.216
62.68000 1.405
62.70000 1.405
62.72000 1.622
62.74000 1.297
62.76000 1.568
62.78000 1.676
62.80000 1.838
62.82000 1.946
62.84000 1.622
62.86000 1.189
62.88000 1.730
62.90000 0.757
62.92000 1.405
62.94000 1.135
62.96000 1.297
62.98000 1.730
63.00000 1.081
63.02000 1.568
63.04000 1.730
63.06000 1.568
63.08000 1.297
63.10000 1.027
63.12000 1.297
63.14000 1.892
63.16000 1.838
63.18000 1.568
63.20000 1.459
63.22000 1.784
63.24000 1.243
63.26000 1.676
63.28000 1.568
63.30000 1.351
63.32000 1.135
63.34000 0.973
63.36000 1.946
63.38000 1.351
63.40000 1.568
63.42000 1.243
63.44000 1.784
63.46000 0.973
63.48000 1.297
63.50000 1.946
63.52000 1.892
63.54000 1.514
63.56000 1.514
63.58000 1.730
63.60000 1.676
63.62000 1.676
63.64000 2.000
63.66000 1.297
63.68000 1.351
63.70000 1.676
63.72000 1.622
63.74000 1.676
63.76000 1.622
63.78000 1.514
63.80000 1.459
63.82000 1.568
63.84000 1.514
63.86000 1.568
63.88000 1.243
63.90000 1.405
63.92000 1.730
63.94000 1.243
63.96000 1.297
63.98000 0.919
64.00000 1.459
64.02000 1.622
64.04000 1.676
64.06000 1.622
64.08000 1.676
64.10000 1.514
64.12000 1.514
64.14000 1.459
64.16000 1.622
64.18000 1.622
64.20000 0.973
64.22000 1.459
64.24000 1.351
64.26000 1.135
64.28000 1.784
64.30000 1.243
64.32000 1.946
64.34000 1.568
64.36000 0.973
64.38000 1.568
64.40000 1.297
64.42000 1.027
64.44000 1.405
64.46000 1.838
64.48000 1.351
64.50000 1.568
64.52000 1.838
64.54000 1.676
64.56000 1.622
64.58000 1.514
64.60000 2.000
64.62000 1.946
64.64000 2.108
64.66000 2.162
64.68000 2.703
64.70000 2.162
64.72000 1.784
64.74000 1.784
64.76000 2.270
64.78000 2.054
64.80000 2.541
64.82000 2.162
64.84000 2.054
64.86000 2.000
64.88000 2.270
64.90000 3.351
64.92000 2.378
64.94000 2.432
64.96000 2.541
64.98000 2.595
65.00000 3.027
65.02000 2.595
65.04000 3.081
65.06000 2.919
65.08000 2.324
65.10000 2.054
65.12000 1.838
65.14000 1.622
65.16000 1.946
65.18000 2.649
65.20000 2.216
65.22000 2.270
65.24000 1.946
65.26000 1.351
65.28000 1.622
65.30000 1.838
65.32000 1.351
65.34000 2.054
65.36000 1.892
65.38000 1.946
65.40000 0.973
65.42000 1.459
65.44000 1.784
65.46000 2.216
65.48000 1.676
65.50000 1.459
65.52000 1.676
65.54000 1.622
65.56000 1.405
65.58000 1.297
65.60000 1.514
65.62000 1.514
65.64000 1.568
65.66000 1.730
65.68000 1.297
65.70000 1.676
65.72000 1.027
65.74000 1.459
65.76000 1.405
65.78000 1.189
65.80000 1.243
65.82000 1.297
65.84000 2.054
65.86000 1.081
65.88000 1.243
65.90000 1.730
65.92000 1.459
65.94000 0.919
65.96000 1.514
65.98000 1.243
66.00000 1.459
66.02000 1.676
66.04000 1.730
66.06000 1.622
66.08000 1.946
66.10000 2.270
66.12000 1.514
66.14000 1.676
66.16000 1.459
66.18000 1.135
66.20000 1.676
66.22000 1.135
66.24000 1.297
66.26000 1.459
66.28000 1.622
66.30000 1.784
66.32000 1.622
66.34000 1.297
66.36000 2.270
66.38000 1.514
66.40000 1.676
66.42000 1.568
66.44000 1.892
66.46000 1.730
66.48000 2.054
66.50000 1.838
66.52000 1.838
66.54000 1.892
66.56000 1.946
66.58000 2.108
66.60000 1.730
66.62000 2.000
66.64000 2.162
66.66000 1.676
66.68000 2.270
66.70000 2.324
66.72000 2.649
66.74000 1.946
66.76000 3.027
66.78000 3.838
66.80000 3.027
66.82000 3.568
66.84000 3.081
66.86000 3.946
66.88000 4.054
66.90000 4.216
66.92000 4.324
66.94000 3.459
66.96000 3.784
66.98000 4.973
67.00000 3.676
67.02000 3.514
67.04000 4.054
67.06000 3.676
67.08000 3.784
67.10000 2.865
67.12000 3.135
67.14000 3.784
67.16000 2.973
67.18000 3.081
67.20000 2.541
67.22000 3.243
67.24000 1.730
67.26000 2.486
67.28000 2.270
67.30000 2.162
67.32000 2.703
67.34000 2.108
67.36000 1.946
67.38000 1.459
67.40000 2.054
67.42000 1.676
67.44000 1.946
67.46000 1.838
67.48000 1.568
67.50000 1.514
67.52000 2.000
67.54000 1.622
67.56000 1.189
67.58000 2.216
67.60000 2.054
67.62000 1.784
67.64000 1.838
67.66000 1.459
67.68000 1.838
67.70000 2.000
67.72000 1.514
67.74000 2.054
67.76000 1.784
67.78000 2.054
67.80000 1.892
67.82000 2.108
67.84000 1.892
67.86000 2.270
67.88000 2.216
67.90000 2.324
67.92000 3.081
67.94000 2.595
67.96000 2.486
67.98000 2.703
68.00000 2.216
68.02000 2.919
68.04000 2.757
68.06000 3.622
68.08000 2.649
68.10000 3.568
68.12000 3.459
68.14000 3.622
68.16000 4.270
68.18000 4.216
68.20000 4.378
68.22000 4.216
68.24000 5.568
68.26000 5.189
68.28000 6.000
68.30000 5.405
68.32000 6.703
68.34000 5.135
68.36000 7.351
68.38000 5.459
68.40000 6.432
68.42000 6.865
68.44000 6.054
68.46000 5.838
68.48000 5.081
68.50000 4.757
68.52000 4.000
68.54000 3.676
68.56000 4.649
68.58000 3.676
68.60000 3.459
68.62000 3.784
68.64000 4.054
68.66000 3.405
68.68000 1.892
68.70000 2.973
68.72000 2.270
68.74000 2.270
68.76000 2.216
68.78000 2.216
68.80000 1.892
68.82000 1.622
68.84000 1.784
68.86000 1.838
68.88000 2.432
68.90000 2.432
68.92000 1.730
68.94000 1.730
68.96000 2.108
68.98000 2.973
69.00000 2.270
69.02000 1.730
69.04000 2.811
69.06000 2.270
69.08000 1.784
69.10000 2.811
69.12000 2.108
69.14000 2.270
69.16000 2.703
69.18000 2.270
69.20000 2.216
69.22000 3.676
69.24000 2.162
69.26000 3.027
69.28000 3.081
69.30000 3.297
69.32000 3.459
69.34000 3.730
69.36000 3.351
69.38000 3.189
69.40000 3.189
69.42000 3.189
69.44000 2.973
69.46000 2.865
69.48000 2.973
69.50000 2.865
69.52000 2.595
69.54000 2.486
69.56000 2.811
69.58000 2.595
69.60000 2.541
69.62000 2.324
69.64000 1.514
69.66000 2.649
69.68000 2.054
69.70000 1.946
69.72000 1.946
69.74000 1.622
69.76000 1.622
69.78000 2.162
69.80000 1.838
69.82000 1.730
69.84000 1.351
69.86000 1.027
69.88000 1.351
69.90000 1.297
69.92000 1.568
69.94000 1.514
69.96000 1.405
69.98000 1.243
70.00000 1.297
70.02000 1.405
70.04000 1.459
70.06000 2.000
70.08000 1.135
70.10000 1.730
70.12000 1.622
70.14000 1.405
70.16000 0.973
70.18000 1.730
70.20000 1.514
70.22000 2.162
70.24000 1.405
70.26000 1.351
70.28000 1.297
70.30000 1.459
70.32000 1.351
70.34000 1.568
70.36000 0.649
70.38000 1.189
70.40000 1.135
70.42000 1.243
70.44000 1.730
70.46000 1.892
70.48000 1.135
70.50000 1.135
70.52000 1.405
70.54000 1.027
70.56000 1.189
70.58000 1.135
70.60000 1.027
70.62000 1.297
70.64000 1.027
70.66000 0.811
70.68000 1.351
70.70000 1.135
70.72000 1.189
70.74000 1.189
70.76000 1.135
70.78000 1.297
70.80000 0.865
70.82000 1.297
70.84000 1.081
70.86000 1.405
70.88000 1.676
70.90000 1.189
70.92000 1.027
70.94000 1.243
70.96000 1.838
70.98000 1.459
71.00000 1.189
71.02000 1.622
71.04000 1.351
71.06000 1.297
71.08000 1.081
71.10000 1.459
71.12000 1.405
71.14000 0.973
71.16000 1.027
71.18000 1.189
71.20000 1.568
71.22000 1.243
71.24000 1.351
71.26000 1.189
71.28000 1.135
71.30000 1.135
71.32000 1.081
71.34000 1.297
71.36000 1.297
71.38000 1.189
71.40000 1.297
71.42000 1.568
71.44000 1.351
71.46000 1.297
71.48000 1.568
71.50000 1.459
71.52000 1.459
71.54000 2.000
71.56000 1.622
71.58000 1.405
71.60000 1.405
71.62000 1.784
71.64000 1.568
71.66000 1.622
71.68000 1.459
71.70000 1.622
71.72000 1.189
71.74000 1.405
71.76000 1.459
71.78000 1.189
71.80000 1.027
71.82000 1.135
71.84000 1.189
71.86000 1.027
71.88000 0.811
71.90000 1.405
71.92000 1.514
71.94000 1.189
71.96000 0.973
71.98000 1.676
72.00000 0.919
72.02000 2.000
72.04000 1.081
72.06000 1.622
72.08000 1.514
72.10000 1.459
72.12000 1.081
72.14000 1.297
72.16000 1.622
72.18000 1.351
72.20000 1.243
72.22000 0.973
72.24000 1.405
72.26000 1.081
72.28000 1.081
72.30000 1.297
72.32000 1.027
72.34000 0.919
72.36000 1.135
72.38000 1.459
72.40000 0.703
72.42000 1.081
72.44000 1.459
72.46000 0.973
72.48000 0.649
72.50000 1.243
72.52000 1.622
72.54000 1.135
72.56000 1.243
72.58000 0.649
72.60000 1.027
72.62000 1.459
72.64000 1.514
72.66000 0.973
72.68000 0.757
72.70000 1.459
72.72000 1.081
72.74000 1.405
72.76000 1.243
72.78000 1.405
72.80000 0.811
72.82000 1.459
72.84000 1.243
72.86000 1.081
72.88000 1.568
72.90000 1.351
72.92000 1.838
72.94000 1.135
72.96000 1.405
72.98000 0.865
73.00000 1.243
73.02000 0.865
73.04000 1.189
73.06000 1.189
73.08000 0.919
73.10000 1.459
73.12000 1.351
73.14000 0.811
73.16000 1.081
73.18000 1.189
73.20000 1.459
73.22000 1.297
73.24000 1.243
73.26000 0.973
73.28000 1.514
73.30000 1.135
73.32000 1.135
73.34000 1.351
73.36000 0.865
73.38000 1.081
73.40000 0.649
73.42000 0.757
73.44000 1.514
73.46000 1.243
73.48000 1.081
73.50000 0.703
73.52000 1.135
73.54000 0.811
73.56000 1.081
73.58000 0.919
73.60000 0.973
73.62000 1.297
73.64000 1.027
73.66000 0.595
73.68000 1.135
73.70000 0.973
73.72000 1.459
73.74000 1.027
73.76000 1.676
73.78000 1.081
73.80000 0.649
73.82000 1.027
73.84000 0.865
73.86000 1.622
73.88000 1.622
73.90000 1.081
73.92000 1.027
73.94000 0.595
73.96000 1.081
73.98000 0.919
74.00000 1.622
74.02000 1.243
74.04000 0.973
74.06000 1.135
74.08000 1.405
74.10000 1.027
74.12000 1.135
74.14000 1.297
74.16000 1.081
74.18000 0.973
74.20000 0.811
74.22000 1.027
74.24000 1.351
74.26000 0.919
74.28000 1.027
74.30000 1.622
74.32000 1.297
74.34000 1.568
74.36000 1.081
74.38000 1.514
74.40000 1.297
74.42000 1.135
74.44000 1.027
74.46000 1.568
74.48000 0.811
74.50000 1.135
74.52000 1.568
74.54000 0.811
74.56000 0.973
74.58000 1.189
74.60000 1.189
74.62000 0.757
74.64000 1.405
74.66000 1.243
74.68000 1.135
74.70000 1.297
74.72000 1.189
74.74000 1.351
74.76000 1.189
74.78000 1.297
74.80000 1.622
74.82000 2.000
74.84000 1.135
74.86000 1.351
74.88000 1.027
74.90000 1.946
74.92000 1.459
74.94000 2.054
74.96000 1.405
74.98000 2.054
75.00000 1.189
75.02000 1.676
75.04000 1.568
75.06000 1.892
75.08000 2.324
75.10000 2.757
75.12000 2.973
75.14000 2.541
75.16000 2.595
75.18000 2.541
75.20000 3.027
75.22000 3.676
75.24000 3.405
75.26000 4.378
75.28000 4.486
75.30000 4.000
75.32000 4.108
75.34000 4.378
75.36000 5.459
75.38000 5.459
75.40000 5.676
75.42000 7.189
75.44000 7.351
75.46000 6.865
75.48000 6.378
75.50000 7.189
75.52000 8.324
75.54000 7.676
75.56000 7.946
75.58000 8.324
75.60000 6.973
75.62000 6.054
75.64000 6.162
75.66000 6.324
75.68000 8.054
75.70000 5.459
75.72000 5.676
75.74000 5.297
75.76000 4.595
75.78000 5.892
75.80000 4.703
75.82000 4.703
75.84000 3.568
75.86000 4.108
75.88000 3.622
75.90000 2.541
75.92000 3.351
75.94000 2.703
75.96000 2.432
75.98000 2.703
76.00000 2.270
76.02000 2.324
76.04000 3.027
76.06000 1.892
76.08000 2.216
76.10000 2.216
76.12000 1.892
76.14000 1.784
76.16000 1.892
76.18000 0.973
76.20000 1.730
76.22000 2.216
76.24000 1.514
76.26000 1.568
76.28000 1.838
76.30000 1.784
76.32000 1.784
76.34000 1.784
76.36000 1.351
76.38000 1.784
76.40000 1.838
76.42000 1.676
76.44000 1.730
76.46000 1.838
76.48000 1.946
76.50000 1.568
76.52000 1.351
76.54000 1.459
76.56000 1.405
76.58000 1.297
76.60000 1.730
76.62000 1.189
76.64000 1.243
76.66000 1.351
76.68000 1.081
76.70000 1.459
76.72000 1.622
76.74000 1.459
76.76000 1.514
76.78000 1.568
76.80000 1.622
76.82000 1.514
76.84000 1.622
76.86000 1.784
76.88000 2.108
76.90000 1.514
76.92000 1.405
76.94000 1.946
76.96000 1.622
76.98000 1.892
77.00000 1.568
77.02000 1.622
77.04000 1.297
77.06000 1.459
77.08000 1.892
77.10000 2.378
77.12000 1.568
77.14000 1.838
77.16000 2.000
77.18000 1.676
77.20000 2.054
77.22000 2.486
77.24000 1.622
77.26000 2.649
77.28000 2.324
77.30000 2.703
77.32000 3.405
77.34000 2.919
77.36000 4.000
77.38000 3.892
77.40000 2.919
77.42000 3.027
77.44000 3.838
77.46000 3.459
77.48000 3.730
77.50000 4.432
77.52000 4.270
77.54000 3.946
77.56000 4.865
77.58000 4.703
77.60000 4.486
77.62000 4.811
77.64000 3.568
77.66000 3.730
77.68000 3.676
77.70000 3.730
77.72000 4.757
77.74000 4.649
77.76000 4.216
77.78000 4.973
77.80000 4.000
77.82000 4.162
77.84000 4.270
77.86000 4.108
77.88000 4.216
77.90000 3.568
77.92000 4.595
77.94000 3.351
77.96000 3.243
77.98000 2.865
78.00000 3.189
78.02000 3.243
78.04000 2.811
78.06000 2.919
78.08000 3.243
78.10000 2.865
78.12000 3.351
78.14000 3.027
78.16000 2.703
78.18000 2.378
78.20000 2.811
78.22000 2.270
78.24000 2.432
78.26000 2.108
78.28000 2.108
78.30000 2.865
78.32000 2.541
78.34000 2.919
78.36000 2.324
78.38000 2.324
78.40000 2.270
78.42000 2.595
78.44000 1.892
78.46000 2.108
78.48000 2.054
78.50000 2.054
78.52000 1.892
78.54000 1.838
78.56000 1.405
78.58000 2.000
78.60000 1.514
78.62000 2.054
78.64000 1.514
78.66000 1.892
78.68000 1.459
78.70000 0.703
78.72000 1.676
78.74000 1.946
78.76000 1.568
78.78000 2.054
78.80000 1.459
78.82000 1.351
78.84000 1.622
78.86000 1.730
78.88000 0.757
78.90000 1.135
78.92000 1.459
78.94000 1.189
78.96000 1.514
78.98000 1.351
79.00000 1.189
79.02000 1.568
79.04000 1.135
79.06000 1.405
79.08000 1.622
79.10000 0.703
79.12000 1.351
79.14000 1.081
79.16000 1.189
79.18000 1.568
79.20000 1.568
79.22000 1.297
79.24000 1.297
79.26000 1.784
79.28000 1.243
79.30000 1.622
79.32000 1.135
79.34000 1.297
79.36000 1.622
79.38000 1.622
79.40000 1.405
79.42000 1.243
79.44000 1.081
79.46000 1.405
79.48000 1.027
79.50000 1.297
79.52000 1.189
79.54000 1.189
79.56000 1.081
79.58000 1.135
79.60000 1.730
79.62000 1.135
79.64000 1.189
79.66000 1.514
79.68000 0.865
79.70000 0.973
79.72000 1.405
79.74000 1.297
79.76000 1.622
79.78000 0.865
79.80000 1.297
79.82000 1.243
79.84000 0.865
79.86000 1.189
79.88000 1.514
79.90000 0.973
79.92000 1.405
79.94000 1.297
79.96000 1.351
79.98000 0.703
80.00000 1.027
