'Id: "COMMANDER Sample ID" Comment: "" Operator: "Lab Manager" Anode: "Cu" Wavelength: "1.5406" Scantype: "2Theta (TwoTheta)" TimePerStep: "9.4" X: "2" Y: "2" Z: "7.35" 
20.00000 5.213
20.01000 5.000
20.02000 5.745
20.03000 5.957
20.04000 4.468
20.05000 5.213
20.06000 5.745
20.07000 4.894
20.08000 5.319
20.09000 3.511
20.10000 4.787
20.11000 6.702
20.12000 4.362
20.13000 4.787
20.14000 4.787
20.15000 5.851
20.16000 7.021
20.17000 4.894
20.18000 5.426
20.19000 4.681
20.20000 4.468
20.21000 4.255
20.22000 5.213
20.23000 4.894
20.24000 4.468
20.25000 4.787
20.26000 4.255
20.27000 4.681
20.28000 4.043
20.29000 4.362
20.30000 4.362
20.31000 4.468
20.32000 4.043
20.33000 4.894
20.34000 5.851
20.35000 4.681
20.36000 5.213
20.37000 4.574
20.38000 4.149
20.39000 5.319
20.40000 5.532
20.41000 5.213
20.42000 3.511
20.43000 4.468
20.44000 5.106
20.45000 5.851
20.46000 5.213
20.47000 4.043
20.48000 3.830
20.49000 5.426
20.50000 4.043
20.51000 4.043
20.52000 5.000
20.53000 4.043
20.54000 4.787
20.55000 5.851
20.56000 4.255
20.57000 5.319
20.58000 5.213
20.59000 5.106
20.60000 6.064
20.61000 2.872
20.62000 5.213
20.63000 5.426
20.64000 4.787
20.65000 4.149
20.66000 4.255
20.67000 3.511
20.68000 4.362
20.69000 4.149
20.70000 4.255
20.71000 5.213
20.72000 3.617
20.73000 4.681
20.74000 5.319
20.75000 4.787
20.76000 4.362
20.77000 5.319
20.78000 5.213
20.79000 5.319
20.80000 5.106
20.81000 6.170
20.82000 5.106
20.83000 5.000
20.84000 3.511
20.85000 4.894
20.86000 4.681
20.87000 5.319
20.88000 5.319
20.89000 4.149
20.90000 4.362
20.91000 4.894
20.92000 4.681
20.93000 4.574
20.94000 5.319
20.95000 5.426
20.96000 5.319
20.97000 4.574
20.98000 3.617
20.99000 4.255
21.00000 4.681
21.01000 3.723
21.02000 5.319
21.03000 5.745
21.04000 4.468
21.05000 4.894
21.06000 4.468
21.07000 5.213
21.08000 4.043
21.09000 5.638
21.10000 5.000
21.11000 4.681
21.12000 4.574
21.13000 3.936
21.14000 5.638
21.15000 3.617
21.16000 4.468
21.17000 5.000
21.18000 3.511
21.19000 5.851
21.20000 5.213
21.21000 4.574
21.22000 3.191
21.23000 5.638
21.24000 4.043
21.25000 4.468
21.26000 4.468
21.27000 5.106
21.28000 4.894
21.29000 4.574
21.30000 5.532
21.31000 5.638
21.32000 4.894
21.33000 3.830
21.34000 5.319
21.35000 4.043
21.36000 4.362
21.37000 5.426
21.38000 5.638
21.39000 4.787
21.40000 5.000
21.41000 5.638
21.42000 4.149
21.43000 6.170
21.44000 5.319
21.45000 3.404
21.46000 4.894
21.47000 4.043
21.48000 4.043
21.49000 5.000
21.50000 4.149
21.51000 5.213
21.52000 4.787
21.53000 4.894
21.54000 4.787
21.55000 5.426
21.56000 5.957
21.57000 4.894
21.58000 4.043
21.59000 4.681
21.60000 5.106
21.61000 4.574
21.62000 5.532
21.63000 4.574
21.64000 4.468
21.65000 5.851
21.66000 5.000
21.67000 7.553
21.68000 5.426
21.69000 4.787
21.70000 5.532
21.71000 4.681
21.72000 6.277
21.73000 4.362
21.74000 5.319
21.75000 4.787
21.76000 4.255
21.77000 5.000
21.78000 5.106
21.79000 4.894
21.80000 4.787
21.81000 4.894
21.82000 5.106
21.83000 4.149
21.84000 4.787
21.85000 5.957
21.86000 5.426
21.87000 5.213
21.88000 6.596
21.89000 5.532
21.90000 4.255
21.91000 5.532
21.92000 6.702
21.93000 6.064
21.94000 4.787
21.95000 5.106
21.96000 5.745
21.97000 5.851
21.98000 7.021
21.99000 5.957
22.00000 5.745
22.01000 6.170
22.02000 6.489
22.03000 5.957
22.04000 7.553
22.05000 6.277
22.06000 5.213
22.07000 6.277
22.08000 5.106
22.09000 5.638
22.10000 4.468
22.11000 4.787
22.12000 6.277
22.13000 5.851
22.14000 5.319
22.15000 5.106
22.16000 5.319
22.17000 6.489
22.18000 5.638
22.19000 6.489
22.20000 5.319
22.21000 6.489
22.22000 4.574
22.23000 4.255
22.24000 5.638
22.25000 5.000
22.26000 5.745
22.27000 3.723
22.28000 5.638
22.29000 5.106
22.30000 4.894
22.31000 4.894
22.32000 3.617
22.33000 5.745
22.34000 5.745
22.35000 5.000
22.36000 4.468
22.37000 4.362
22.38000 4.681
22.39000 5.213
22.40000 5.106
22.41000 4.574
22.42000 5.319
22.43000 4.681
22.44000 3.723
22.45000 4.681
22.46000 4.362
22.47000 5.000
22.48000 3.617
22.49000 6.170
22.50000 4.255
22.51000 5.532
22.52000 4.043
22.53000 5.213
22.54000 5.106
22.55000 4.681
22.56000 4.149
22.57000 4.362
22.58000 3.936
22.59000 5.000
22.60000 4.574
22.61000 5.319
22.62000 4.574
22.63000 5.532
22.64000 4.362
22.65000 6.170
22.66000 4.255
22.67000 4.681
22.68000 4.468
22.69000 5.106
22.70000 4.362
22.71000 5.426
22.72000 4.149
22.73000 4.574
22.74000 4.362
22.75000 4.787
22.76000 3.191
22.77000 5.426
22.78000 5.106
22.79000 4.149
22.80000 4.149
22.81000 4.255
22.82000 5.957
22.83000 4.468
22.84000 4.362
22.85000 5.532
22.86000 4.787
22.87000 4.787
22.88000 3.617
22.89000 4.894
22.90000 4.149
22.91000 3.936
22.92000 4.149
22.93000 4.894
22.94000 4.255
22.95000 5.957
22.96000 4.043
22.97000 3.298
22.98000 5.851
22.99000 4.362
23.00000 4.681
23.01000 5.213
23.02000 4.681
23.03000 4.894
23.04000 3.511
23.05000 5.638
23.06000 4.894
23.07000 4.787
23.08000 4.468
23.09000 3.830
23.10000 5.532
23.11000 5.851
23.12000 4.362
23.13000 3.936
23.14000 4.255
23.15000 3.404
23.16000 4.255
23.17000 4.894
23.18000 4.043
23.19000 4.362
23.20000 4.362
23.21000 3.936
23.22000 5.106
23.23000 4.468
23.24000 4.362
23.25000 5.000
23.26000 5.319
23.27000 4.149
23.28000 4.043
23.29000 4.787
23.30000 4.787
23.31000 4.468
23.32000 4.043
23.33000 5.213
23.34000 3.830
23.35000 4.362
23.36000 4.681
23.37000 4.787
23.38000 5.426
23.39000 5.532
23.40000 4.362
23.41000 4.043
23.42000 4.681
23.43000 3.830
23.44000 3.830
23.45000 4.043
23.46000 4.787
23.47000 4.681
23.48000 5.000
23.49000 4.043
23.50000 3.191
23.51000 3.511
23.52000 4.681
23.53000 4.894
23.54000 4.362
23.55000 4.681
23.56000 4.681
23.57000 4.787
23.58000 3.617
23.59000 4.681
23.60000 5.319
23.61000 5.745
23.62000 5.319
23.63000 3.085
23.64000 5.319
23.65000 4.681
23.66000 4.894
23.67000 4.681
23.68000 5.957
23.69000 4.894
23.70000 4.468
23.71000 4.468
23.72000 4.681
23.73000 5.851
23.74000 3.936
23.75000 4.787
23.76000 3.617
23.77000 5.426
23.78000 4.787
23.79000 4.362
23.80000 5.106
23.81000 4.681
23.82000 4.574
23.83000 3.723
23.84000 5.000
23.85000 4.468
23.86000 3.830
23.87000 4.894
23.88000 4.787
23.89000 4.894
23.90000 5.213
23.91000 4.043
23.92000 4.255
23.93000 3.511
23.94000 4.681
23.95000 4.362
23.96000 5.106
23.97000 4.362
23.98000 5.000
23.99000 4.894
24.00000 4.787
24.01000 5.851
24.02000 5.000
24.03000 4.894
24.04000 3.936
24.05000 5.957
24.06000 4.362
24.07000 4.362
24.08000 4.894
24.09000 4.468
24.10000 3.936
24.11000 5.000
24.12000 5.106
24.13000 4.681
24.14000 3.830
24.15000 5.638
24.16000 3.830
24.17000 4.468
24.18000 4.574
24.19000 5.106
24.20000 5.000
24.21000 5.106
24.22000 4.681
24.23000 4.255
24.24000 4.362
24.25000 4.681
24.26000 5.426
24.27000 4.894
24.28000 3.723
24.29000 4.468
24.30000 4.574
24.31000 3.511
24.32000 4.787
24.33000 4.043
24.34000 5.319
24.35000 4.149
24.36000 4.149
24.37000 4.574
24.38000 5.426
24.39000 4.149
24.40000 6.702
24.41000 4.149
24.42000 5.532
24.43000 5.638
24.44000 3.723
24.45000 4.255
24.46000 6.383
24.47000 4.787
24.48000 4.787
24.49000 5.426
24.50000 4.255
24.51000 4.043
24.52000 3.936
24.53000 4.574
24.54000 5.319
24.55000 4.255
24.56000 5.000
24.57000 4.149
24.58000 4.894
24.59000 4.894
24.60000 4.681
24.61000 6.596
24.62000 5.426
24.63000 4.149
24.64000 5.745
24.65000 5.638
24.66000 4.574
24.67000 5.000
24.68000 4.149
24.69000 5.000
24.70000 4.574
24.71000 3.936
24.72000 3.723
24.73000 4.362
24.74000 5.638
24.75000 5.213
24.76000 4.894
24.77000 6.702
24.78000 5.532
24.79000 5.000
24.80000 5.638
24.81000 3.936
24.82000 3.936
24.83000 5.532
24.84000 5.213
24.85000 4.468
24.86000 4.894
24.87000 4.468
24.88000 3.830
24.89000 4.468
24.90000 6.064
24.91000 5.426
24.92000 5.213
24.93000 5.213
24.94000 4.255
24.95000 5.957
24.96000 5.213
24.97000 4.468
24.98000 4.787
24.99000 5.426
25.00000 4.681
25.01000 3.723
25.02000 5.638
25.03000 4.681
25.04000 5.000
25.05000 5.638
25.06000 4.362
25.07000 5.213
25.08000 4.362
25.09000 5.106
25.10000 5.638
25.11000 4.362
25.12000 5.638
25.13000 5.106
25.14000 5.638
25.15000 4.894
25.16000 5.851
25.17000 4.468
25.18000 4.894
25.19000 4.894
25.20000 5.745
25.21000 4.043
25.22000 4.681
25.23000 4.787
25.24000 4.681
25.25000 6.064
25.26000 4.255
25.27000 5.532
25.28000 4.894
25.29000 6.277
25.30000 5.106
25.31000 5.106
25.32000 6.702
25.33000 5.957
25.34000 5.851
25.35000 5.638
25.36000 5.426
25.37000 5.000
25.38000 5.319
25.39000 5.213
25.40000 4.255
25.41000 4.681
25.42000 5.319
25.43000 4.894
25.44000 4.574
25.45000 5.638
25.46000 6.064
25.47000 5.532
25.48000 6.064
25.49000 6.489
25.50000 5.745
25.51000 5.532
25.52000 5.213
25.53000 4.681
25.54000 6.596
25.55000 4.149
25.56000 4.787
25.57000 6.277
25.58000 5.319
25.59000 5.638
25.60000 5.213
25.61000 4.681
25.62000 5.532
25.63000 6.064
25.64000 5.426
25.65000 5.957
25.66000 5.000
25.67000 5.319
25.68000 5.532
25.69000 5.957
25.70000 6.277
25.71000 4.894
25.72000 6.064
25.73000 4.468
25.74000 5.638
25.75000 6.915
25.76000 4.468
25.77000 5.532
25.78000 5.426
25.79000 5.638
25.80000 3.617
25.81000 6.383
25.82000 5.426
25.83000 5.957
25.84000 6.277
25.85000 5.213
25.86000 5.851
25.87000 5.213
25.88000 5.957
25.89000 5.106
25.90000 4.787
25.91000 5.638
25.92000 5.532
25.93000 6.383
25.94000 6.064
25.95000 5.426
25.96000 6.170
25.97000 6.489
25.98000 4.681
25.99000 6.064
26.00000 6.489
26.01000 6.170
26.02000 5.851
26.03000 3.723
26.04000 4.894
26.05000 5.745
26.06000 6.170
26.07000 5.106
26.08000 4.681
26.09000 5.426
26.10000 5.319
26.11000 6.702
26.12000 6.489
26.13000 5.319
26.14000 4.787
26.15000 5.532
26.16000 5.957
26.17000 5.745
26.18000 5.106
26.19000 5.106
26.20000 4.787
26.21000 6.702
26.22000 5.851
26.23000 5.319
26.24000 5.851
26.25000 5.000
26.26000 6.064
26.27000 6.277
26.28000 6.170
26.29000 5.638
26.30000 5.851
26.31000 5.213
26.32000 4.894
26.33000 5.638
26.34000 4.149
26.35000 4.362
26.36000 5.426
26.37000 4.362
26.38000 5.957
26.39000 4.574
26.40000 6.170
26.41000 4.468
26.42000 6.383
26.43000 5.851
26.44000 4.681
26.45000 7.128
26.46000 5.638
26.47000 4.787
26.48000 5.851
26.49000 5.426
26.50000 4.787
26.51000 4.149
26.52000 4.894
26.53000 5.000
26.54000 6.383
26.55000 5.532
26.56000 3.936
26.57000 5.213
26.58000 4.362
26.59000 4.574
26.60000 5.213
26.61000 5.426
26.62000 5.319
26.63000 4.787
26.64000 4.681
26.65000 4.255
26.66000 5.106
26.67000 5.426
26.68000 4.894
26.69000 4.787
26.70000 6.596
26.71000 5.213
26.72000 5.426
26.73000 5.106
26.74000 5.106
26.75000 5.213
26.76000 5.319
26.77000 4.468
26.78000 3.936
26.79000 6.277
26.80000 3.936
26.81000 5.532
26.82000 4.468
26.83000 5.426
26.84000 4.149
26.85000 5.745
26.86000 4.043
26.87000 5.532
26.88000 5.532
26.89000 5.851
26.90000 4.787
26.91000 6.809
26.92000 5.851
26.93000 5.957
26.94000 4.681
26.95000 5.532
26.96000 4.787
26.97000 4.787
26.98000 4.043
26.99000 4.362
27.00000 4.574
27.01000 6.383
27.02000 5.000
27.03000 4.043
27.04000 6.064
27.05000 5.319
27.06000 5.106
27.07000 5.745
27.08000 4.894
27.09000 4.787
27.10000 4.787
27.11000 5.532
27.12000 6.277
27.13000 5.957
27.14000 7.447
27.15000 7.766
27.16000 6.170
27.17000 4.681
27.18000 4.787
27.19000 6.383
27.20000 6.596
27.21000 7.021
27.22000 7.872
27.23000 6.383
27.24000 5.106
27.25000 7.660
27.26000 6.702
27.27000 8.298
27.28000 6.170
27.29000 7.340
27.30000 7.021
27.31000 8.298
27.32000 6.489
27.33000 7.766
27.34000 9.149
27.35000 7.128
27.36000 6.170
27.37000 6.702
27.38000 7.447
27.39000 7.021
27.40000 7.234
27.41000 7.872
27.42000 5.106
27.43000 5.851
27.44000 4.574
27.45000 6.277
27.46000 6.170
27.47000 4.894
27.48000 5.745
27.49000 5.745
27.50000 5.000
27.51000 5.426
27.52000 4.362
27.53000 5.745
27.54000 5.638
27.55000 4.681
27.56000 5.106
27.57000 4.468
27.58000 5.213
27.59000 4.362
27.60000 5.213
27.61000 4.894
27.62000 4.255
27.63000 4.574
27.64000 4.255
27.65000 4.894
27.66000 4.362
27.67000 3.723
27.68000 4.574
27.69000 3.511
27.70000 3.298
27.71000 5.319
27.72000 3.936
27.73000 3.617
27.74000 3.298
27.75000 3.511
27.76000 3.617
27.77000 3.085
27.78000 4.149
27.79000 3.723
27.80000 5.000
27.81000 4.043
27.82000 3.511
27.83000 3.085
27.84000 4.255
27.85000 3.404
27.86000 5.319
27.87000 3.936
27.88000 3.723
27.89000 4.149
27.90000 3.617
27.91000 3.404
27.92000 4.043
27.93000 2.021
27.94000 2.872
27.95000 4.255
27.96000 3.404
27.97000 2.766
27.98000 4.255
27.99000 2.872
28.00000 2.234
28.01000 3.085
28.02000 2.872
28.03000 3.404
28.04000 4.894
28.05000 2.979
28.06000 3.404
28.07000 3.723
28.08000 2.872
28.09000 2.872
28.10000 3.723
28.11000 3.191
28.12000 3.617
28.13000 3.085
28.14000 3.617
28.15000 3.085
28.16000 3.617
28.17000 2.766
28.18000 4.255
28.19000 3.298
28.20000 3.085
28.21000 2.553
28.22000 3.298
28.23000 3.936
28.24000 3.830
28.25000 3.936
28.26000 4.149
28.27000 2.660
28.28000 3.191
28.29000 3.404
28.30000 3.404
28.31000 3.511
28.32000 4.255
28.33000 2.553
28.34000 3.936
28.35000 4.362
28.36000 2.340
28.37000 3.723
28.38000 3.404
28.39000 4.043
28.40000 3.830
28.41000 2.766
28.42000 3.298
28.43000 4.362
28.44000 2.447
28.45000 3.404
28.46000 3.511
28.47000 2.766
28.48000 2.872
28.49000 2.553
28.50000 3.723
28.51000 3.191
28.52000 3.723
28.53000 2.660
28.54000 3.617
28.55000 3.298
28.56000 4.787
28.57000 2.766
28.58000 2.766
28.59000 3.723
28.60000 2.766
28.61000 3.085
28.62000 3.298
28.63000 2.766
28.64000 3.723
28.65000 4.255
28.66000 3.191
28.67000 3.617
28.68000 3.723
28.69000 3.511
28.70000 3.298
28.71000 2.766
28.72000 3.085
28.73000 3.404
28.74000 3.404
28.75000 2.979
28.76000 3.191
28.77000 2.766
28.78000 2.128
28.79000 2.447
28.80000 3.511
28.81000 4.149
28.82000 3.191
28.83000 2.660
28.84000 3.085
28.85000 3.298
28.86000 2.872
28.87000 3.617
28.88000 2.766
28.89000 2.766
28.90000 3.085
28.91000 2.447
28.92000 2.660
28.93000 3.617
28.94000 2.128
28.95000 3.404
28.96000 2.447
28.97000 3.404
28.98000 3.617
28.99000 4.043
29.00000 2.766
29.01000 2.872
29.02000 4.894
29.03000 2.447
29.04000 3.191
29.05000 2.766
29.06000 3.085
29.07000 3.404
29.08000 3.830
29.09000 3.511
29.10000 3.936
29.11000 3.085
29.12000 3.404
29.13000 2.447
29.14000 3.617
29.15000 3.085
29.16000 3.617
29.17000 4.468
29.18000 3.298
29.19000 3.617
29.20000 2.447
29.21000 3.511
29.22000 2.872
29.23000 3.085
29.24000 3.085
29.25000 4.255
29.26000 2.660
29.27000 3.298
29.28000 2.872
29.29000 2.447
29.30000 3.191
29.31000 3.191
29.32000 2.447
29.33000 2.447
29.34000 3.404
29.35000 3.085
29.36000 3.511
29.37000 2.234
29.38000 3.298
29.39000 3.191
29.40000 2.872
29.41000 2.128
29.42000 2.766
29.43000 2.021
29.44000 3.085
29.45000 3.404
29.46000 3.298
29.47000 2.447
29.48000 3.936
29.49000 3.298
29.50000 3.617
29.51000 2.766
29.52000 2.340
29.53000 2.766
29.54000 3.511
29.55000 2.660
29.56000 3.404
29.57000 2.553
29.58000 3.191
29.59000 2.553
29.60000 2.872
29.61000 2.979
29.62000 3.298
29.63000 3.830
29.64000 2.660
29.65000 2.553
29.66000 3.298
29.67000 2.447
29.68000 2.234
29.69000 2.766
29.70000 3.191
29.71000 3.298
29.72000 2.447
29.73000 3.511
29.74000 2.021
29.75000 3.085
29.76000 3.723
29.77000 2.553
29.78000 3.511
29.79000 3.191
29.80000 3.191
29.81000 3.830
29.82000 1.809
29.83000 3.723
29.84000 2.447
29.85000 3.404
29.86000 2.128
29.87000 2.660
29.88000 2.553
29.89000 2.979
29.90000 2.872
29.91000 3.191
29.92000 2.766
29.93000 2.128
29.94000 2.553
29.95000 3.511
29.96000 2.128
29.97000 3.191
29.98000 2.340
29.99000 2.447
30.00000 3.723
30.01000 3.085
30.02000 3.511
30.03000 2.660
30.04000 2.766
30.05000 1.915
30.06000 2.234
30.07000 3.191
30.08000 3.404
30.09000 2.660
30.10000 2.872
30.11000 3.404
30.12000 2.766
30.13000 2.660
30.14000 4.043
30.15000 2.660
30.16000 3.511
30.17000 2.447
30.18000 2.234
30.19000 2.021
30.20000 2.553
30.21000 2.553
30.22000 2.872
30.23000 2.766
30.24000 2.660
30.25000 3.085
30.26000 3.511
30.27000 1.915
30.28000 2.553
30.29000 3.298
30.30000 2.766
30.31000 3.191
30.32000 2.021
30.33000 2.234
30.34000 2.766
30.35000 3.404
30.36000 2.340
30.37000 3.191
30.38000 3.830
30.39000 2.660
30.40000 2.553
30.41000 2.553
30.42000 2.872
30.43000 3.617
30.44000 2.021
30.45000 3.404
30.46000 2.872
30.47000 2.128
30.48000 3.617
30.49000 3.936
30.50000 3.936
30.51000 2.553
30.52000 2.766
30.53000 2.979
30.54000 3.191
30.55000 2.234
30.56000 3.936
30.57000 3.617
30.58000 3.298
30.59000 2.128
30.60000 2.979
30.61000 3.085
30.62000 2.660
30.63000 3.085
30.64000 2.979
30.65000 2.660
30.66000 2.234
30.67000 2.340
30.68000 2.234
30.69000 3.511
30.70000 3.723
30.71000 2.447
30.72000 3.085
30.73000 2.979
30.74000 2.872
30.75000 2.553
30.76000 3.191
30.77000 2.979
30.78000 2.660
30.79000 2.553
30.80000 3.085
30.81000 2.340
30.82000 2.340
30.83000 2.128
30.84000 2.660
30.85000 3.617
30.86000 3.191
30.87000 2.766
30.88000 3.511
30.89000 3.511
30.90000 3.723
30.91000 3.723
30.92000 2.447
30.93000 3.298
30.94000 3.404
30.95000 3.723
30.96000 2.872
30.97000 3.404
30.98000 3.085
30.99000 2.447
31.00000 3.404
31.01000 4.149
31.02000 3.511
31.03000 3.085
31.04000 3.830
31.05000 3.511
31.06000 2.447
31.07000 3.936
31.08000 4.681
31.09000 4.149
31.10000 4.362
31.11000 3.830
31.12000 4.468
31.13000 3.723
31.14000 3.936
31.15000 5.106
31.16000 4.787
31.17000 4.894
31.18000 3.617
31.19000 3.936
31.20000 4.894
31.21000 4.787
31.22000 4.894
31.23000 3.298
31.24000 5.000
31.25000 4.574
31.26000 4.574
31.27000 4.255
31.28000 5.319
31.29000 5.957
31.30000 5.638
31.31000 5.106
31.32000 5.532
31.33000 4.894
31.34000 5.638
31.35000 5.957
31.36000 4.894
31.37000 3.723
31.38000 3.936
31.39000 5.532
31.40000 4.149
31.41000 5.106
31.42000 3.830
31.43000 4.149
31.44000 5.319
31.45000 5.319
31.46000 4.681
31.47000 2.872
31.48000 4.255
31.49000 5.000
31.50000 3.191
31.51000 3.404
31.52000 4.787
31.53000 3.085
31.54000 3.511
31.55000 2.766
31.56000 1.809
31.57000 2.660
31.58000 4.362
31.59000 2.553
31.60000 2.660
31.61000 2.447
31.62000 2.766
31.63000 2.979
31.64000 3.617
31.65000 3.830
31.66000 2.128
31.67000 3.085
31.68000 3.191
31.69000 4.149
31.70000 2.553
31.71000 2.660
31.72000 2.660
31.73000 3.191
31.74000 2.660
31.75000 4.149
31.76000 2.766
31.77000 3.298
31.78000 3.936
31.79000 2.766
31.80000 3.191
31.81000 3.723
31.82000 3.723
31.83000 4.255
31.84000 3.723
31.85000 2.766
31.86000 2.872
31.87000 3.298
31.88000 2.340
31.89000 2.872
31.90000 2.340
31.91000 3.404
31.92000 4.043
31.93000 3.404
31.94000 3.511
31.95000 3.298
31.96000 2.553
31.97000 2.872
31.98000 2.872
31.99000 2.766
32.00000 3.085
32.01000 3.404
32.02000 3.085
32.03000 2.021
32.04000 2.553
32.05000 3.085
32.06000 2.979
32.07000 2.553
32.08000 2.447
32.09000 4.149
32.10000 2.872
32.11000 2.979
32.12000 2.340
32.13000 2.340
32.14000 3.298
32.15000 3.617
32.16000 2.021
32.17000 2.872
32.18000 2.234
32.19000 3.830
32.20000 2.340
32.21000 3.830
32.22000 2.872
32.23000 3.617
32.24000 3.085
32.25000 2.766
32.26000 3.830
32.27000 2.234
32.28000 3.617
32.29000 3.511
32.30000 2.872
32.31000 2.340
32.32000 2.553
32.33000 2.660
32.34000 2.234
32.35000 2.872
32.36000 2.766
32.37000 3.298
32.38000 2.234
32.39000 2.979
32.40000 3.404
32.41000 2.766
32.42000 3.511
32.43000 4.043
32.44000 2.553
32.45000 3.617
32.46000 4.681
32.47000 3.723
32.48000 2.979
32.49000 5.000
32.50000 5.532
32.51000 3.404
32.52000 4.149
32.53000 5.213
32.54000 5.213
32.55000 3.085
32.56000 5.000
32.57000 5.426
32.58000 5.957
32.59000 4.362
32.60000 5.957
32.61000 5.638
32.62000 4.468
32.63000 4.255
32.64000 7.234
32.65000 5.319
32.66000 7.021
32.67000 6.064
32.68000 7.021
32.69000 6.383
32.70000 6.915
32.71000 7.766
32.72000 7.766
32.73000 7.128
32.74000 10.745
32.75000 8.617
32.76000 7.128
32.77000 8.830
32.78000 9.149
32.79000 7.766
32.80000 9.574
32.81000 8.191
32.82000 8.830
32.83000 8.830
32.84000 8.617
32.85000 6.809
32.86000 7.234
32.87000 7.447
32.88000 8.298
32.89000 8.298
32.90000 4.574
32.91000 8.085
32.92000 6.915
32.93000 6.064
32.94000 6.489
32.95000 5.638
32.96000 5.745
32.97000 7.766
32.98000 6.277
32.99000 4.681
33.00000 6.702
33.01000 5.851
33.02000 4.468
33.03000 4.362
33.04000 5.638
33.05000 5.532
33.06000 6.064
33.07000 5.213
33.08000 4.362
33.09000 4.362
33.10000 5.532
33.11000 4.255
33.12000 4.362
33.13000 3.404
33.14000 3.936
33.15000 4.043
33.16000 3.511
33.17000 4.468
33.18000 3.830
33.19000 4.149
33.20000 3.723
33.21000 3.085
33.22000 2.979
33.23000 3.936
33.24000 2.447
33.25000 3.830
33.26000 3.404
33.27000 4.043
33.28000 3.298
33.29000 4.149
33.30000 3.617
33.31000 2.766
33.32000 2.979
33.33000 2.766
33.34000 4.149
33.35000 3.298
33.36000 3.085
33.37000 3.511
33.38000 2.872
33.39000 2.872
33.40000 2.979
33.41000 3.936
33.42000 2.872
33.43000 3.511
33.44000 3.191
33.45000 2.660
33.46000 3.511
33.47000 3.617
33.48000 2.660
33.49000 3.085
33.50000 2.979
33.51000 3.085
33.52000 3.511
33.53000 2.660
33.54000 2.021
33.55000 2.447
33.56000 2.660
33.57000 3.723
33.58000 2.447
33.59000 2.660
33.60000 1.064
33.61000 2.660
33.62000 2.979
33.63000 2.766
33.64000 2.447
33.65000 2.872
33.66000 2.660
33.67000 2.553
33.68000 2.021
33.69000 3.191
33.70000 1.277
33.71000 1.809
33.72000 2.128
33.73000 2.447
33.74000 2.766
33.75000 2.766
33.76000 2.979
33.77000 2.128
33.78000 2.234
33.79000 2.979
33.80000 2.766
33.81000 2.553
33.82000 2.553
33.83000 3.404
33.84000 1.915
33.85000 2.234
33.86000 2.979
33.87000 2.766
33.88000 1.596
33.89000 2.979
33.90000 1.809
33.91000 3.085
33.92000 2.553
33.93000 2.553
33.94000 2.447
33.95000 2.128
33.96000 2.553
33.97000 1.809
33.98000 2.021
33.99000 2.340
34.00000 2.553
34.01000 3.511
34.02000 1.915
34.03000 3.191
34.04000 2.766
34.05000 2.979
34.06000 2.553
34.07000 3.404
34.08000 2.872
34.09000 2.553
34.10000 2.553
34.11000 1.809
34.12000 2.447
34.13000 1.489
34.14000 2.234
34.15000 2.553
34.16000 2.021
34.17000 2.447
34.18000 2.660
34.19000 3.511
34.20000 2.447
34.21000 2.979
34.22000 2.660
34.23000 2.340
34.24000 2.872
34.25000 1.596
34.26000 2.128
34.27000 2.979
34.28000 1.915
34.29000 2.340
34.30000 2.234
34.31000 1.915
34.32000 2.979
34.33000 2.234
34.34000 2.660
34.35000 2.660
34.36000 2.234
34.37000 2.660
34.38000 3.191
34.39000 2.553
34.40000 2.128
34.41000 1.915
34.42000 2.340
34.43000 2.021
34.44000 2.553
34.45000 2.128
34.46000 2.553
34.47000 2.553
34.48000 2.128
34.49000 2.872
34.50000 2.234
34.51000 2.553
34.52000 2.021
34.53000 2.340
34.54000 3.298
34.55000 2.872
34.56000 2.553
34.57000 1.702
34.58000 3.511
34.59000 2.128
34.60000 2.340
34.61000 1.596
34.62000 2.660
34.63000 3.191
34.64000 3.085
34.65000 1.915
34.66000 2.021
34.67000 2.021
34.68000 2.128
34.69000 2.766
34.70000 1.702
34.71000 2.660
34.72000 2.766
34.73000 2.660
34.74000 3.085
34.75000 1.489
34.76000 2.553
34.77000 2.766
34.78000 1.915
34.79000 1.915
34.80000 1.277
34.81000 2.660
34.82000 2.447
34.83000 1.383
34.84000 2.872
34.85000 2.340
34.86000 2.553
34.87000 2.447
34.88000 3.404
34.89000 2.128
34.90000 1.383
34.91000 2.340
34.92000 2.553
34.93000 1.702
34.94000 2.553
34.95000 2.660
34.96000 3.298
34.97000 2.979
34.98000 1.915
34.99000 2.447
35.00000 1.596
35.01000 2.021
35.02000 3.085
35.03000 2.872
35.04000 1.596
35.05000 1.915
35.06000 2.340
35.07000 2.340
35.08000 2.979
35.09000 1.596
35.10000 2.447
35.11000 2.979
35.12000 2.553
35.13000 2.340
35.14000 2.128
35.15000 2.340
35.16000 2.553
35.17000 2.128
35.18000 2.872
35.19000 2.340
35.20000 2.021
35.21000 2.234
35.22000 2.021
35.23000 1.383
35.24000 2.340
35.25000 2.979
35.26000 2.340
35.27000 2.234
35.28000 3.085
35.29000 1.702
35.30000 2.447
35.31000 2.766
35.32000 2.128
35.33000 1.702
35.34000 2.021
35.35000 3.404
35.36000 2.447
35.37000 1.064
35.38000 2.021
35.39000 2.766
35.40000 1.596
35.41000 2.340
35.42000 1.596
35.43000 1.702
35.44000 3.085
35.45000 2.021
35.46000 2.766
35.47000 2.660
35.48000 2.447
35.49000 2.872
35.50000 2.021
35.51000 2.553
35.52000 2.234
35.53000 2.128
35.54000 2.021
35.55000 2.553
35.56000 1.809
35.57000 3.085
35.58000 3.085
35.59000 2.340
35.60000 1.809
35.61000 2.979
35.62000 2.234
35.63000 1.809
35.64000 2.021
35.65000 2.234
35.66000 2.447
35.67000 2.234
35.68000 2.021
35.69000 2.553
35.70000 2.553
35.71000 2.128
35.72000 3.511
35.73000 1.702
35.74000 2.553
35.75000 3.191
35.76000 2.021
35.77000 1.809
35.78000 3.191
35.79000 2.766
35.80000 2.872
35.81000 2.660
35.82000 2.021
35.83000 3.298
35.84000 2.872
35.85000 1.702
35.86000 2.234
35.87000 2.553
35.88000 3.298
35.89000 2.979
35.90000 2.872
35.91000 2.128
35.92000 2.979
35.93000 1.915
35.94000 1.596
35.95000 1.809
35.96000 3.085
35.97000 1.809
35.98000 3.404
35.99000 2.447
36.00000 1.489
36.01000 3.723
36.02000 2.660
36.03000 1.915
36.04000 2.128
36.05000 3.298
36.06000 2.872
36.07000 2.872
36.08000 2.340
36.09000 2.021
36.10000 2.766
36.11000 2.234
36.12000 3.085
36.13000 2.234
36.14000 3.404
36.15000 2.128
36.16000 2.553
36.17000 2.872
36.18000 4.043
36.19000 2.660
36.20000 1.915
36.21000 3.085
36.22000 3.404
36.23000 3.298
36.24000 2.660
36.25000 3.085
36.26000 3.085
36.27000 2.660
36.28000 2.447
36.29000 2.553
36.30000 2.872
36.31000 3.298
36.32000 3.617
36.33000 2.872
36.34000 1.915
36.35000 3.085
36.36000 2.234
36.37000 4.149
36.38000 1.915
36.39000 2.553
36.40000 2.234
36.41000 2.766
36.42000 3.085
36.43000 2.660
36.44000 2.766
36.45000 2.128
36.46000 2.234
36.47000 2.553
36.48000 2.447
36.49000 2.340
36.50000 1.277
36.51000 2.447
36.52000 2.872
36.53000 2.234
36.54000 2.872
36.55000 2.021
36.56000 2.340
36.57000 2.340
36.58000 2.128
36.59000 2.340
36.60000 1.915
36.61000 1.915
36.62000 1.915
36.63000 2.340
36.64000 2.021
36.65000 2.340
36.66000 2.021
36.67000 2.766
36.68000 3.191
36.69000 1.915
36.70000 2.340
36.71000 2.340
36.72000 2.447
36.73000 2.660
36.74000 2.021
36.75000 1.915
36.76000 2.447
36.77000 2.447
36.78000 2.766
36.79000 1.383
36.80000 2.021
36.81000 1.809
36.82000 1.596
36.83000 2.872
36.84000 2.660
36.85000 2.872
36.86000 2.872
36.87000 1.915
36.88000 3.191
36.89000 1.915
36.90000 2.234
36.91000 1.915
36.92000 1.702
36.93000 2.447
36.94000 3.085
36.95000 2.766
36.96000 2.234
36.97000 2.447
36.98000 2.128
36.99000 1.809
37.00000 2.234
37.01000 2.553
37.02000 2.766
37.03000 2.766
37.04000 2.447
37.05000 1.596
37.06000 1.596
37.07000 2.340
37.08000 2.128
37.09000 2.872
37.10000 2.553
37.11000 2.021
37.12000 2.447
37.13000 2.021
37.14000 2.340
37.15000 1.596
37.16000 2.766
37.17000 2.234
37.18000 2.021
37.19000 2.021
37.20000 2.447
37.21000 3.085
37.22000 2.447
37.23000 2.553
37.24000 2.234
37.25000 2.660
37.26000 1.702
37.27000 1.702
37.28000 2.447
37.29000 2.553
37.30000 2.128
37.31000 2.766
37.32000 2.128
37.33000 2.660
37.34000 2.021
37.35000 2.021
37.36000 2.447
37.37000 2.979
37.38000 2.021
37.39000 2.340
37.40000 2.128
37.41000 1.915
37.42000 2.340
37.43000 1.489
37.44000 2.021
37.45000 2.021
37.46000 1.170
37.47000 2.234
37.48000 2.021
37.49000 1.596
37.50000 1.702
37.51000 2.021
37.52000 1.915
37.53000 2.340
37.54000 3.298
37.55000 2.447
37.56000 3.298
37.57000 2.234
37.58000 2.553
37.59000 2.021
37.60000 1.596
37.61000 2.447
37.62000 2.660
37.63000 2.234
37.64000 1.596
37.65000 1.915
37.66000 2.766
37.67000 1.702
37.68000 2.128
37.69000 4.255
37.70000 1.702
37.71000 2.340
37.72000 2.766
37.73000 2.766
37.74000 2.979
37.75000 2.340
37.76000 2.340
37.77000 2.128
37.78000 2.021
37.79000 1.809
37.80000 2.340
37.81000 2.660
37.82000 2.872
37.83000 2.553
37.84000 2.128
37.85000 1.915
37.86000 2.340
37.87000 2.447
37.88000 2.447
37.89000 2.553
37.90000 2.234
37.91000 2.447
37.92000 3.085
37.93000 2.872
37.94000 1.489
37.95000 1.489
37.96000 2.128
37.97000 2.979
37.98000 2.234
37.99000 2.766
38.00000 1.809
38.01000 2.979
38.02000 2.447
38.03000 2.128
38.04000 2.553
38.05000 2.766
38.06000 2.660
38.07000 2.447
38.08000 2.553
38.09000 2.872
38.10000 2.553
38.11000 2.128
38.12000 1.915
38.13000 2.128
38.14000 2.128
38.15000 2.872
38.16000 2.447
38.17000 2.766
38.18000 2.660
38.19000 2.766
38.20000 3.511
38.21000 2.021
38.22000 1.809
38.23000 1.489
38.24000 1.489
38.25000 1.809
38.26000 2.553
38.27000 3.298
38.28000 2.447
38.29000 2.128
38.30000 2.447
38.31000 2.979
38.32000 2.660
38.33000 3.085
38.34000 2.979
38.35000 2.553
38.36000 2.021
38.37000 2.340
38.38000 2.872
38.39000 1.702
38.40000 2.234
38.41000 2.021
38.42000 2.340
38.43000 2.553
38.44000 2.340
38.45000 1.809
38.46000 2.553
38.47000 1.277
38.48000 2.660
38.49000 2.234
38.50000 1.809
38.51000 2.553
38.52000 2.447
38.53000 2.447
38.54000 2.553
38.55000 2.553
38.56000 2.766
38.57000 2.872
38.58000 2.766
38.59000 2.234
38.60000 3.085
38.61000 1.915
38.62000 2.021
38.63000 2.979
38.64000 2.447
38.65000 1.489
38.66000 2.128
38.67000 2.447
38.68000 1.809
38.69000 1.915
38.70000 1.489
38.71000 2.660
38.72000 2.553
38.73000 2.234
38.74000 2.979
38.75000 2.660
38.76000 3.511
38.77000 2.447
38.78000 2.128
38.79000 3.830
38.80000 1.915
38.81000 2.340
38.82000 2.553
38.83000 2.447
38.84000 1.596
38.85000 2.979
38.86000 1.915
38.87000 2.234
38.88000 2.766
38.89000 3.617
38.90000 2.447
38.91000 1.702
38.92000 2.340
38.93000 2.553
38.94000 2.447
38.95000 2.660
38.96000 3.298
38.97000 2.128
38.98000 3.191
38.99000 2.234
39.00000 3.617
39.01000 2.340
39.02000 2.447
39.03000 2.234
39.04000 2.553
39.05000 3.298
39.06000 2.340
39.07000 4.149
39.08000 3.191
39.09000 3.085
39.10000 2.128
39.11000 2.553
39.12000 3.404
39.13000 2.979
39.14000 2.553
39.15000 2.979
39.16000 2.553
39.17000 2.021
39.18000 2.340
39.19000 3.085
39.20000 2.553
39.21000 4.043
39.22000 2.553
39.23000 2.872
39.24000 4.787
39.25000 2.872
39.26000 2.340
39.27000 3.617
39.28000 2.766
39.29000 3.191
39.30000 3.085
39.31000 4.043
39.32000 3.723
39.33000 4.362
39.34000 4.574
39.35000 4.149
39.36000 3.511
39.37000 4.574
39.38000 4.362
39.39000 5.957
39.40000 4.894
39.41000 5.319
39.42000 5.638
39.43000 4.894
39.44000 4.894
39.45000 6.170
39.46000 5.957
39.47000 8.298
39.48000 6.170
39.49000 7.660
39.50000 8.511
39.51000 8.191
39.52000 6.702
39.53000 11.489
39.54000 10.000
39.55000 7.553
39.56000 8.298
39.57000 11.702
39.58000 10.213
39.59000 10.532
39.60000 13.723
39.61000 13.511
39.62000 12.766
39.63000 12.979
39.64000 15.851
39.65000 17.234
39.66000 14.787
39.67000 17.128
39.68000 17.234
39.69000 18.723
39.70000 18.617
39.71000 20.106
39.72000 19.681
39.73000 25.319
39.74000 20.957
39.75000 22.766
39.76000 24.894
39.77000 27.660
39.78000 26.489
39.79000 25.213
39.80000 30.638
39.81000 28.191
39.82000 27.234
39.83000 26.383
39.84000 26.702
39.85000 29.894
39.86000 27.766
39.87000 28.085
39.88000 25.745
39.89000 23.723
39.90000 26.596
39.91000 20.745
39.92000 23.511
39.93000 25.426
39.94000 21.064
39.95000 19.362
39.96000 22.234
39.97000 19.362
39.98000 17.128
39.99000 15.851
40.00000 15.319
40.01000 15.638
40.02000 17.447
40.03000 13.298
40.04000 13.830
40.05000 11.170
40.06000 11.489
40.07000 12.234
40.08000 11.170
40.09000 8.723
40.10000 10.638
40.11000 9.362
40.12000 6.915
40.13000 9.574
40.14000 10.106
40.15000 6.809
40.16000 7.553
40.17000 8.085
40.18000 8.404
40.19000 7.234
40.20000 6.064
40.21000 6.170
40.22000 4.574
40.23000 6.064
40.24000 7.872
40.25000 7.340
40.26000 6.915
40.27000 6.170
40.28000 5.851
40.29000 5.000
40.30000 2.872
40.31000 4.043
40.32000 5.000
40.33000 3.830
40.34000 3.723
40.35000 5.213
40.36000 4.574
40.37000 4.149
40.38000 4.894
40.39000 4.574
40.40000 3.936
40.41000 4.362
40.42000 4.043
40.43000 2.553
40.44000 3.830
40.45000 4.362
40.46000 2.553
40.47000 4.255
40.48000 2.447
40.49000 4.043
40.50000 3.191
40.51000 4.255
40.52000 2.872
40.53000 2.979
40.54000 3.404
40.55000 3.085
40.56000 3.617
40.57000 3.617
40.58000 4.255
40.59000 3.298
40.60000 1.809
40.61000 3.191
40.62000 2.766
40.63000 1.702
40.64000 2.447
40.65000 3.298
40.66000 5.106
40.67000 3.723
40.68000 4.043
40.69000 3.617
40.70000 2.447
40.71000 2.660
40.72000 2.553
40.73000 1.915
40.74000 2.979
40.75000 3.404
40.76000 2.021
40.77000 2.872
40.78000 2.979
40.79000 3.085
40.80000 3.191
40.81000 2.660
40.82000 3.511
40.83000 2.979
40.84000 2.021
40.85000 2.447
40.86000 2.234
40.87000 3.298
40.88000 2.872
40.89000 2.766
40.90000 2.553
40.91000 2.979
40.92000 2.340
40.93000 3.191
40.94000 2.340
40.95000 2.553
40.96000 3.085
40.97000 2.766
40.98000 2.766
40.99000 3.404
41.00000 2.979
41.01000 2.447
41.02000 3.191
41.03000 2.872
41.04000 3.830
41.05000 1.915
41.06000 2.979
41.07000 1.809
41.08000 3.085
41.09000 2.979
41.10000 2.766
41.11000 3.511
41.12000 2.447
41.13000 3.723
41.14000 3.085
41.15000 2.128
41.16000 2.447
41.17000 2.447
41.18000 2.340
41.19000 2.872
41.20000 3.617
41.21000 2.447
41.22000 2.340
41.23000 2.553
41.24000 2.553
41.25000 2.660
41.26000 2.128
41.27000 2.447
41.28000 1.809
41.29000 2.553
41.30000 2.553
41.31000 3.298
41.32000 2.872
41.33000 2.660
41.34000 2.766
41.35000 2.553
41.36000 2.340
41.37000 2.979
41.38000 2.979
41.39000 1.596
41.40000 2.553
41.41000 2.447
41.42000 2.340
41.43000 2.128
41.44000 3.298
41.45000 2.872
41.46000 2.553
41.47000 3.191
41.48000 2.766
41.49000 2.872
41.50000 2.979
41.51000 2.447
41.52000 3.723
41.53000 2.660
41.54000 3.085
41.55000 2.128
41.56000 2.234
41.57000 3.191
41.58000 2.447
41.59000 2.660
41.60000 2.766
41.61000 2.234
41.62000 2.660
41.63000 2.553
41.64000 2.234
41.65000 2.872
41.66000 3.617
41.67000 2.553
41.68000 2.766
41.69000 2.234
41.70000 2.979
41.71000 2.447
41.72000 2.340
41.73000 2.766
41.74000 1.596
41.75000 2.340
41.76000 3.298
41.77000 3.404
41.78000 2.979
41.79000 2.660
41.80000 2.234
41.81000 1.915
41.82000 2.553
41.83000 2.234
41.84000 2.553
41.85000 2.553
41.86000 2.872
41.87000 2.872
41.88000 2.660
41.89000 2.766
41.90000 2.979
41.91000 2.979
41.92000 2.660
41.93000 2.553
41.94000 2.872
41.95000 2.766
41.96000 4.149
41.97000 3.085
41.98000 2.979
41.99000 2.340
42.00000 3.830
42.01000 3.511
42.02000 3.191
42.03000 2.553
42.04000 4.043
42.05000 3.511
42.06000 2.660
42.07000 3.298
42.08000 3.191
42.09000 4.149
42.10000 2.553
42.11000 3.404
42.12000 4.043
42.13000 2.979
42.14000 3.830
42.15000 4.468
42.16000 3.298
42.17000 3.617
42.18000 3.085
42.19000 3.404
42.20000 2.553
42.21000 3.830
42.22000 4.149
42.23000 3.617
42.24000 3.830
42.25000 3.298
42.26000 3.617
42.27000 4.043
42.28000 4.468
42.29000 4.043
42.30000 4.255
42.31000 4.043
42.32000 4.255
42.33000 4.149
42.34000 4.574
42.35000 5.745
42.36000 4.149
42.37000 4.043
42.38000 3.404
42.39000 5.532
42.40000 4.468
42.41000 5.000
42.42000 5.957
42.43000 5.106
42.44000 5.426
42.45000 5.426
42.46000 6.489
42.47000 6.277
42.48000 7.660
42.49000 7.766
42.50000 7.128
42.51000 7.447
42.52000 6.702
42.53000 6.383
42.54000 7.872
42.55000 7.021
42.56000 8.723
42.57000 8.404
42.58000 9.574
42.59000 10.745
42.60000 9.681
42.61000 9.468
42.62000 10.638
42.63000 12.340
42.64000 12.021
42.65000 13.191
42.66000 12.660
42.67000 13.191
42.68000 12.128
42.69000 11.596
42.70000 12.766
42.71000 13.830
42.72000 14.362
42.73000 15.213
42.74000 14.255
42.75000 16.277
42.76000 16.170
42.77000 15.532
42.78000 14.149
42.79000 16.702
42.80000 12.660
42.81000 14.149
42.82000 14.894
42.83000 13.723
42.84000 12.872
42.85000 13.191
42.86000 13.191
42.87000 12.021
42.88000 11.596
42.89000 12.447
42.90000 10.745
42.91000 9.149
42.92000 8.936
42.93000 12.447
42.94000 10.106
42.95000 8.936
42.96000 9.574
42.97000 8.936
42.98000 7.872
42.99000 8.085
43.00000 8.085
43.01000 8.404
43.02000 7.128
43.03000 7.553
43.04000 6.915
43.05000 8.191
43.06000 6.915
43.07000 5.851
43.08000 6.170
43.09000 8.511
43.10000 5.957
43.11000 5.000
43.12000 5.957
43.13000 6.170
43.14000 5.000
43.15000 5.213
43.16000 5.000
43.17000 4.043
43.18000 6.809
43.19000 5.000
43.20000 5.638
43.21000 6.596
43.22000 4.362
43.23000 5.745
43.24000 5.851
43.25000 5.532
43.26000 6.064
43.27000 5.213
43.28000 7.021
43.29000 5.426
43.30000 5.319
43.31000 5.638
43.32000 6.383
43.33000 6.170
43.34000 6.596
43.35000 7.234
43.36000 7.553
43.37000 5.745
43.38000 6.809
43.39000 5.745
43.40000 7.021
43.41000 7.872
43.42000 5.213
43.43000 7.447
43.44000 7.979
43.45000 7.234
43.46000 8.511
43.47000 8.085
43.48000 8.830
43.49000 8.404
43.50000 10.000
43.51000 9.149
43.52000 10.213
43.53000 11.489
43.54000 11.915
43.55000 12.553
43.56000 11.809
43.57000 10.851
43.58000 11.277
43.59000 13.617
43.60000 14.255
43.61000 12.979
43.62000 17.128
43.63000 16.489
43.64000 17.872
43.65000 18.617
43.66000 18.298
43.67000 19.787
43.68000 22.553
43.69000 23.723
43.70000 27.021
43.71000 22.553
43.72000 24.574
43.73000 25.745
43.74000 29.362
43.75000 29.043
43.76000 33.830
43.77000 31.596
43.78000 33.404
43.79000 33.830
43.80000 38.511
43.81000 33.191
43.82000 35.532
43.83000 36.915
43.84000 38.191
43.85000 39.681
43.86000 37.234
43.87000 41.064
43.88000 39.362
43.89000 37.447
43.90000 37.660
43.91000 34.894
43.92000 38.404
43.93000 39.255
43.94000 37.979
43.95000 35.851
43.96000 32.553
43.97000 32.660
43.98000 31.702
43.99000 35.000
44.00000 31.064
44.01000 28.404
44.02000 26.064
44.03000 25.851
44.04000 27.766
44.05000 24.681
44.06000 25.851
44.07000 20.638
44.08000 21.383
44.09000 23.191
44.10000 22.660
44.11000 20.638
44.12000 17.128
44.13000 19.574
44.14000 17.128
44.15000 18.191
44.16000 17.340
44.17000 17.234
44.18000 15.213
44.19000 14.255
44.20000 12.766
44.21000 15.319
44.22000 14.043
44.23000 14.362
44.24000 10.319
44.25000 13.936
44.26000 13.085
44.27000 10.319
44.28000 12.979
44.29000 11.064
44.30000 12.979
44.31000 10.957
44.32000 12.979
44.33000 11.702
44.34000 10.745
44.35000 11.489
44.36000 11.383
44.37000 13.404
44.38000 9.149
44.39000 10.319
44.40000 12.447
44.41000 12.766
44.42000 11.489
44.43000 12.340
44.44000 12.021
44.45000 15.957
44.46000 14.468
44.47000 12.766
44.48000 13.298
44.49000 14.255
44.50000 15.745
44.51000 13.298
44.52000 13.404
44.53000 19.043
44.54000 15.851
44.55000 17.340
44.56000 16.489
44.57000 17.766
44.58000 19.894
44.59000 21.596
44.60000 17.234
44.61000 25.000
44.62000 20.319
44.63000 21.383
44.64000 24.255
44.65000 22.872
44.66000 23.298
44.67000 23.404
44.68000 23.617
44.69000 23.723
44.70000 23.617
44.71000 25.745
44.72000 25.638
44.73000 26.809
44.74000 23.936
44.75000 25.000
44.76000 24.574
44.77000 21.596
44.78000 23.723
44.79000 24.681
44.80000 19.681
44.81000 23.191
44.82000 20.851
44.83000 22.447
44.84000 21.170
44.85000 20.319
44.86000 18.723
44.87000 21.170
44.88000 19.149
44.89000 19.362
44.90000 16.809
44.91000 16.277
44.92000 17.553
44.93000 15.319
44.94000 14.468
44.95000 13.936
44.96000 14.255
44.97000 13.936
44.98000 10.851
44.99000 14.362
45.00000 12.340
45.01000 12.128
45.02000 10.957
45.03000 8.723
45.04000 12.234
45.05000 11.809
45.06000 9.681
45.07000 9.043
45.08000 9.043
45.09000 10.106
45.10000 7.766
45.11000 8.191
45.12000 10.319
45.13000 6.064
45.14000 9.787
45.15000 9.255
45.16000 7.553
45.17000 8.617
45.18000 7.872
45.19000 8.191
45.20000 7.021
45.21000 5.851
45.22000 7.021
45.23000 7.553
45.24000 8.085
45.25000 7.766
45.26000 6.915
45.27000 9.468
45.28000 8.723
45.29000 9.362
45.30000 8.298
45.31000 10.106
45.32000 7.553
45.33000 9.043
45.34000 9.362
45.35000 6.383
45.36000 9.362
45.37000 9.468
45.38000 11.277
45.39000 8.830
45.40000 12.021
45.41000 11.383
45.42000 11.277
45.43000 12.340
45.44000 11.170
45.45000 11.596
45.46000 13.830
45.47000 12.340
45.48000 13.404
45.49000 15.851
45.50000 14.043
45.51000 16.596
45.52000 15.957
45.53000 16.702
45.54000 14.787
45.55000 18.723
45.56000 20.426
45.57000 20.000
45.58000 22.021
45.59000 21.915
45.60000 26.170
45.61000 23.404
45.62000 24.149
45.63000 29.362
45.64000 31.170
45.65000 32.872
45.66000 32.872
45.67000 35.319
45.68000 36.064
45.69000 40.957
45.70000 39.043
45.71000 40.957
45.72000 42.128
45.73000 45.638
45.74000 47.660
45.75000 46.809
45.76000 49.362
45.77000 50.745
45.78000 50.319
45.79000 55.851
45.80000 55.426
45.81000 58.191
45.82000 57.021
45.83000 61.277
45.84000 58.298
45.85000 61.383
45.86000 62.553
45.87000 62.340
45.88000 59.362
45.89000 58.723
45.90000 59.681
45.91000 59.468
45.92000 57.872
45.93000 60.319
45.94000 56.702
45.95000 54.043
45.96000 56.277
45.97000 56.064
45.98000 55.000
45.99000 51.809
46.00000 50.319
46.01000 46.596
46.02000 48.404
46.03000 40.426
46.04000 40.532
46.05000 37.872
46.06000 38.085
46.07000 37.979
46.08000 36.915
46.09000 33.511
46.10000 36.915
46.11000 30.426
46.12000 30.532
46.13000 25.851
46.14000 24.149
46.15000 23.936
46.16000 22.234
46.17000 23.085
46.18000 22.021
46.19000 18.723
46.20000 17.553
46.21000 18.085
46.22000 15.851
46.23000 15.106
46.24000 16.064
46.25000 16.064
46.26000 13.830
46.27000 13.617
46.28000 11.277
46.29000 13.830
46.30000 12.660
46.31000 11.383
46.32000 10.319
46.33000 10.957
46.34000 10.106
46.35000 10.213
46.36000 9.255
46.37000 8.511
46.38000 7.128
46.39000 6.915
46.40000 8.298
46.41000 7.766
46.42000 7.872
46.43000 5.957
46.44000 5.638
46.45000 6.277
46.46000 6.702
46.47000 7.021
46.48000 7.234
46.49000 8.085
46.50000 5.957
46.51000 7.979
46.52000 6.915
46.53000 6.383
46.54000 5.213
46.55000 3.830
46.56000 5.426
46.57000 3.723
46.58000 3.830
46.59000 5.532
46.60000 3.404
46.61000 5.000
46.62000 3.936
46.63000 4.468
46.64000 4.574
46.65000 3.830
46.66000 4.468
46.67000 3.404
46.68000 4.043
46.69000 3.511
46.70000 3.617
46.71000 3.085
46.72000 3.723
46.73000 2.660
46.74000 3.617
46.75000 3.617
46.76000 3.511
46.77000 4.043
46.78000 3.404
46.79000 2.979
46.80000 3.936
46.81000 4.255
46.82000 3.723
46.83000 2.766
46.84000 4.681
46.85000 3.085
46.86000 2.979
46.87000 3.511
46.88000 2.872
46.89000 2.553
46.90000 3.511
46.91000 3.298
46.92000 2.872
46.93000 3.511
46.94000 3.191
46.95000 2.979
46.96000 2.340
46.97000 3.511
46.98000 2.234
46.99000 3.298
47.00000 2.660
47.01000 3.085
47.02000 2.766
47.03000 3.085
47.04000 3.617
47.05000 3.723
47.06000 2.766
47.07000 3.085
47.08000 2.660
47.09000 2.872
47.10000 2.553
47.11000 2.766
47.12000 3.511
47.13000 2.872
47.14000 3.085
47.15000 3.511
47.16000 2.340
47.17000 3.085
47.18000 2.660
47.19000 3.617
47.20000 2.766
47.21000 3.085
47.22000 2.447
47.23000 2.979
47.24000 4.255
47.25000 1.809
47.26000 3.085
47.27000 2.021
47.28000 1.915
47.29000 1.596
47.30000 3.298
47.31000 2.872
47.32000 2.660
47.33000 2.447
47.34000 2.660
47.35000 2.979
47.36000 2.234
47.37000 2.340
47.38000 2.979
47.39000 2.340
47.40000 3.085
47.41000 2.447
47.42000 2.128
47.43000 2.128
47.44000 1.489
47.45000 3.191
47.46000 1.489
47.47000 2.872
47.48000 2.660
47.49000 2.553
47.50000 1.915
47.51000 2.553
47.52000 2.660
47.53000 2.340
47.54000 1.915
47.55000 3.298
47.56000 2.553
47.57000 2.553
47.58000 2.234
47.59000 2.021
47.60000 2.021
47.61000 2.766
47.62000 2.340
47.63000 2.447
47.64000 2.447
47.65000 2.553
47.66000 2.128
47.67000 2.234
47.68000 2.021
47.69000 2.340
47.70000 2.234
47.71000 2.340
47.72000 2.021
47.73000 2.872
47.74000 1.915
47.75000 1.809
47.76000 3.085
47.77000 1.489
47.78000 3.191
47.79000 3.191
47.80000 2.447
47.81000 1.809
47.82000 1.277
47.83000 2.340
47.84000 2.340
47.85000 2.553
47.86000 2.447
47.87000 2.234
47.88000 2.128
47.89000 2.553
47.90000 2.340
47.91000 1.489
47.92000 1.702
47.93000 1.809
47.94000 2.660
47.95000 1.596
47.96000 2.128
47.97000 1.702
47.98000 3.191
47.99000 1.489
48.00000 3.085
48.01000 2.766
48.02000 2.553
48.03000 1.915
48.04000 2.553
48.05000 2.234
48.06000 2.021
48.07000 2.979
48.08000 2.447
48.09000 2.553
48.10000 1.596
48.11000 1.596
48.12000 2.660
48.13000 2.340
48.14000 2.234
48.15000 2.553
48.16000 1.915
48.17000 2.979
48.18000 2.872
48.19000 2.340
48.20000 2.766
48.21000 1.915
48.22000 2.872
48.23000 1.277
48.24000 2.234
48.25000 2.553
48.26000 2.234
48.27000 1.596
48.28000 2.340
48.29000 2.553
48.30000 2.553
48.31000 2.128
48.32000 1.809
48.33000 2.766
48.34000 2.979
48.35000 2.872
48.36000 2.128
48.37000 2.979
48.38000 2.128
48.39000 2.021
48.40000 2.553
48.41000 2.234
48.42000 3.085
48.43000 2.872
48.44000 1.596
48.45000 1.809
48.46000 2.234
48.47000 1.915
48.48000 2.660
48.49000 2.234
48.50000 2.021
48.51000 2.128
48.52000 2.128
48.53000 2.234
48.54000 2.128
48.55000 2.340
48.56000 3.404
48.57000 1.809
48.58000 2.553
48.59000 2.872
48.60000 1.915
48.61000 2.660
48.62000 2.234
48.63000 1.702
48.64000 2.553
48.65000 2.553
48.66000 2.128
48.67000 2.766
48.68000 3.723
48.69000 2.447
48.70000 3.511
48.71000 2.553
48.72000 3.085
48.73000 2.340
48.74000 2.447
48.75000 2.447
48.76000 2.979
48.77000 2.021
48.78000 2.872
48.79000 3.085
48.80000 2.447
48.81000 3.298
48.82000 3.404
48.83000 3.085
48.84000 4.149
48.85000 3.085
48.86000 3.404
48.87000 4.362
48.88000 3.404
48.89000 4.894
48.90000 3.085
48.91000 3.617
48.92000 5.106
48.93000 3.830
48.94000 4.681
48.95000 4.043
48.96000 4.787
48.97000 4.681
48.98000 5.957
48.99000 5.426
49.00000 5.638
49.01000 5.106
49.02000 6.489
49.03000 7.021
49.04000 7.021
49.05000 6.489
49.06000 5.957
49.07000 6.596
49.08000 6.383
49.09000 9.043
49.10000 8.191
49.11000 8.723
49.12000 7.021
49.13000 8.404
49.14000 8.830
49.15000 7.766
49.16000 8.617
49.17000 7.766
49.18000 7.447
49.19000 7.340
49.20000 8.404
49.21000 6.702
49.22000 7.766
49.23000 8.191
49.24000 9.255
49.25000 7.340
49.26000 8.617
49.27000 8.511
49.28000 9.149
49.29000 9.043
49.30000 9.574
49.31000 8.830
49.32000 9.468
49.33000 8.298
49.34000 7.553
49.35000 9.894
49.36000 10.426
49.37000 8.723
49.38000 9.149
49.39000 11.064
49.40000 10.532
49.41000 8.830
49.42000 12.447
49.43000 11.489
49.44000 12.128
49.45000 12.660
49.46000 12.340
49.47000 12.128
49.48000 11.383
49.49000 15.957
49.50000 12.872
49.51000 15.851
49.52000 12.872
49.53000 15.851
49.54000 15.957
49.55000 17.021
49.56000 18.617
49.57000 16.809
49.58000 18.723
49.59000 18.085
49.60000 19.043
49.61000 16.170
49.62000 17.872
49.63000 18.191
49.64000 19.362
49.65000 19.255
49.66000 17.872
49.67000 17.979
49.68000 17.766
49.69000 14.787
49.70000 14.255
49.71000 15.957
49.72000 14.894
49.73000 11.489
49.74000 15.213
49.75000 13.085
49.76000 10.957
49.77000 13.723
49.78000 12.872
49.79000 13.404
49.80000 12.234
49.81000 13.404
49.82000 10.745
49.83000 9.362
49.84000 9.681
49.85000 7.979
49.86000 10.213
49.87000 8.830
49.88000 9.043
49.89000 7.553
49.90000 7.234
49.91000 7.234
49.92000 6.702
49.93000 6.170
49.94000 7.979
49.95000 6.809
49.96000 6.277
49.97000 6.702
49.98000 5.638
49.99000 6.383
50.00000 5.213
50.01000 3.936
50.02000 4.681
50.03000 4.468
50.04000 4.894
50.05000 4.362
50.06000 4.787
50.07000 3.298
50.08000 3.830
50.09000 4.362
50.10000 3.723
50.11000 2.872
50.12000 4.043
50.13000 3.298
50.14000 3.617
50.15000 3.298
50.16000 2.553
50.17000 3.404
50.18000 3.617
50.19000 2.766
50.20000 2.766
50.21000 3.830
50.22000 2.660
50.23000 3.936
50.24000 2.766
50.25000 2.660
50.26000 2.872
50.27000 2.766
50.28000 3.085
50.29000 2.872
50.30000 2.128
50.31000 1.702
50.32000 2.340
50.33000 1.489
50.34000 2.553
50.35000 2.447
50.36000 3.298
50.37000 2.553
50.38000 2.021
50.39000 2.021
50.40000 1.915
50.41000 2.766
50.42000 2.447
50.43000 2.766
50.44000 1.809
50.45000 1.915
50.46000 2.340
50.47000 2.447
50.48000 1.809
50.49000 1.702
50.50000 1.596
50.51000 2.447
50.52000 2.340
50.53000 2.766
50.54000 1.702
50.55000 1.915
50.56000 1.277
50.57000 1.702
50.58000 0.957
50.59000 2.128
50.60000 2.128
50.61000 1.702
50.62000 2.766
50.63000 1.383
50.64000 1.489
50.65000 1.596
50.66000 1.702
50.67000 1.702
50.68000 1.809
50.69000 1.383
50.70000 1.596
50.71000 2.021
50.72000 2.021
50.73000 1.702
50.74000 2.766
50.75000 1.596
50.76000 1.915
50.77000 2.021
50.78000 1.489
50.79000 1.809
50.80000 2.021
50.81000 1.702
50.82000 2.766
50.83000 1.170
50.84000 2.021
50.85000 1.702
50.86000 1.915
50.87000 1.702
50.88000 1.383
50.89000 1.915
50.90000 1.596
50.91000 2.234
50.92000 1.915
50.93000 1.702
50.94000 1.915
50.95000 2.340
50.96000 2.553
50.97000 1.915
50.98000 2.872
50.99000 1.702
51.00000 2.447
51.01000 1.915
51.02000 2.340
51.03000 1.702
51.04000 2.128
51.05000 2.447
51.06000 1.277
51.07000 2.234
51.08000 2.872
51.09000 2.872
51.10000 2.660
51.11000 2.340
51.12000 1.702
51.13000 2.234
51.14000 2.234
51.15000 1.915
51.16000 2.553
51.17000 2.872
51.18000 1.489
51.19000 2.234
51.20000 3.617
51.21000 3.298
51.22000 2.234
51.23000 2.234
51.24000 2.553
51.25000 2.340
51.26000 2.447
51.27000 2.447
51.28000 2.766
51.29000 2.872
51.30000 2.234
51.31000 3.830
51.32000 3.085
51.33000 2.660
51.34000 1.809
51.35000 3.298
51.36000 3.085
51.37000 2.766
51.38000 2.340
51.39000 1.383
51.40000 2.128
51.41000 2.766
51.42000 2.234
51.43000 2.553
51.44000 2.553
51.45000 3.191
51.46000 1.596
51.47000 1.702
51.48000 2.128
51.49000 1.702
51.50000 2.979
51.51000 2.340
51.52000 1.383
51.53000 1.702
51.54000 2.872
51.55000 2.340
51.56000 2.340
51.57000 1.596
51.58000 2.234
51.59000 3.404
51.60000 1.809
51.61000 2.021
51.62000 2.553
51.63000 1.489
51.64000 2.021
51.65000 1.489
51.66000 1.809
51.67000 1.702
51.68000 3.085
51.69000 2.021
51.70000 2.128
51.71000 2.128
51.72000 1.702
51.73000 2.447
51.74000 1.489
51.75000 2.128
51.76000 1.170
51.77000 1.596
51.78000 2.021
51.79000 2.021
51.80000 0.957
51.81000 1.702
51.82000 2.021
51.83000 1.596
51.84000 2.128
51.85000 2.234
51.86000 1.170
51.87000 1.809
51.88000 1.809
51.89000 2.021
51.90000 2.021
51.91000 1.702
51.92000 1.809
51.93000 1.702
51.94000 1.702
51.95000 1.702
51.96000 2.128
51.97000 1.702
51.98000 1.702
51.99000 2.021
52.00000 1.809
52.01000 1.596
52.02000 1.915
52.03000 1.915
52.04000 0.745
52.05000 1.702
52.06000 0.851
52.07000 1.809
52.08000 2.447
52.09000 2.447
52.10000 2.340
52.11000 1.170
52.12000 1.915
52.13000 1.489
52.14000 1.596
52.15000 1.596
52.16000 1.809
52.17000 2.021
52.18000 1.915
52.19000 1.596
52.20000 1.702
52.21000 1.702
52.22000 1.809
52.23000 2.021
52.24000 1.170
52.25000 1.489
52.26000 1.383
52.27000 1.596
52.28000 1.809
52.29000 2.447
52.30000 1.489
52.31000 2.234
52.32000 0.851
52.33000 2.234
52.34000 1.596
52.35000 1.489
52.36000 1.383
52.37000 1.383
52.38000 2.128
52.39000 2.128
52.40000 0.638
52.41000 1.915
52.42000 2.234
52.43000 0.957
52.44000 1.702
52.45000 1.277
52.46000 1.383
52.47000 2.234
52.48000 1.915
52.49000 1.596
52.50000 1.915
52.51000 2.128
52.52000 1.277
52.53000 1.170
52.54000 1.489
52.55000 1.064
52.56000 1.489
52.57000 2.553
52.58000 1.383
52.59000 0.851
52.60000 1.277
52.61000 1.277
52.62000 1.702
52.63000 1.170
52.64000 1.596
52.65000 1.383
52.66000 1.383
52.67000 1.277
52.68000 1.277
52.69000 1.596
52.70000 2.340
52.71000 1.064
52.72000 1.596
52.73000 1.596
52.74000 1.277
52.75000 1.915
52.76000 1.702
52.77000 1.277
52.78000 2.447
52.79000 1.915
52.80000 1.170
52.81000 1.596
52.82000 1.702
52.83000 1.702
52.84000 1.489
52.85000 2.128
52.86000 1.170
52.87000 2.340
52.88000 1.277
52.89000 1.277
52.90000 1.277
52.91000 1.702
52.92000 1.383
52.93000 2.128
52.94000 1.383
52.95000 2.234
52.96000 2.234
52.97000 2.872
52.98000 1.915
52.99000 1.702
53.00000 1.383
53.01000 1.702
53.02000 1.809
53.03000 2.447
53.04000 1.809
53.05000 1.596
53.06000 1.915
53.07000 2.447
53.08000 2.553
53.09000 2.021
53.10000 1.383
53.11000 2.128
53.12000 2.128
53.13000 2.128
53.14000 2.660
53.15000 1.489
53.16000 0.957
53.17000 1.915
53.18000 1.596
53.19000 2.234
53.20000 2.340
53.21000 2.234
53.22000 2.340
53.23000 2.340
53.24000 1.915
53.25000 1.383
53.26000 1.809
53.27000 1.809
53.28000 1.064
53.29000 1.702
53.30000 2.660
53.31000 2.340
53.32000 1.383
53.33000 2.128
53.34000 2.021
53.35000 2.234
53.36000 2.553
53.37000 2.234
53.38000 2.128
53.39000 2.872
53.40000 3.511
53.41000 2.660
53.42000 2.553
53.43000 2.660
53.44000 3.404
53.45000 2.979
53.46000 3.404
53.47000 3.191
53.48000 4.043
53.49000 3.298
53.50000 3.404
53.51000 4.574
53.52000 4.468
53.53000 4.255
53.54000 5.000
53.55000 3.936
53.56000 4.894
53.57000 4.043
53.58000 4.149
53.59000 5.106
53.60000 5.106
53.61000 5.532
53.62000 6.489
53.63000 6.277
53.64000 5.957
53.65000 4.681
53.66000 6.915
53.67000 6.170
53.68000 5.213
53.69000 7.766
53.70000 5.745
53.71000 6.489
53.72000 6.064
53.73000 6.702
53.74000 7.447
53.75000 6.064
53.76000 8.085
53.77000 9.255
53.78000 9.255
53.79000 8.191
53.80000 7.872
53.81000 8.830
53.82000 8.404
53.83000 8.936
53.84000 7.766
53.85000 8.723
53.86000 6.596
53.87000 8.298
53.88000 5.426
53.89000 6.596
53.90000 5.851
53.91000 8.298
53.92000 5.532
53.93000 6.383
53.94000 5.638
53.95000 7.128
53.96000 7.021
53.97000 6.809
53.98000 5.745
53.99000 7.979
54.00000 5.319
54.01000 6.277
54.02000 4.574
54.03000 4.255
54.04000 4.894
54.05000 4.362
54.06000 5.106
54.07000 4.149
54.08000 4.894
54.09000 3.298
54.10000 4.362
54.11000 3.085
54.12000 5.106
54.13000 3.404
54.14000 3.830
54.15000 3.191
54.16000 3.085
54.17000 2.766
54.18000 3.936
54.19000 3.830
54.20000 3.191
54.21000 2.340
54.22000 3.191
54.23000 2.553
54.24000 3.085
54.25000 2.447
54.26000 3.936
54.27000 2.660
54.28000 2.660
54.29000 2.447
54.30000 3.085
54.31000 1.915
54.32000 1.489
54.33000 1.809
54.34000 2.447
54.35000 1.915
54.36000 1.809
54.37000 2.021
54.38000 2.766
54.39000 2.340
54.40000 2.553
54.41000 2.128
54.42000 1.596
54.43000 1.915
54.44000 1.915
54.45000 2.234
54.46000 2.128
54.47000 2.234
54.48000 1.596
54.49000 1.383
54.50000 1.702
54.51000 2.128
54.52000 1.702
54.53000 1.809
54.54000 2.340
54.55000 3.298
54.56000 1.702
54.57000 1.809
54.58000 1.809
54.59000 1.702
54.60000 1.809
54.61000 1.170
54.62000 2.128
54.63000 1.170
54.64000 1.596
54.65000 1.489
54.66000 1.596
54.67000 2.234
54.68000 2.234
54.69000 1.702
54.70000 2.234
54.71000 1.596
54.72000 1.596
54.73000 0.957
54.74000 1.702
54.75000 1.809
54.76000 1.915
54.77000 1.383
54.78000 1.702
54.79000 2.128
54.80000 1.809
54.81000 2.021
54.82000 1.702
54.83000 2.021
54.84000 1.277
54.85000 1.809
54.86000 2.021
54.87000 2.128
54.88000 1.383
54.89000 1.277
54.90000 1.277
54.91000 2.447
54.92000 1.277
54.93000 1.277
54.94000 1.809
54.95000 1.489
54.96000 2.234
54.97000 1.596
54.98000 1.277
54.99000 1.170
55.00000 1.383
55.01000 2.021
55.02000 1.809
55.03000 1.702
55.04000 1.596
55.05000 1.383
55.06000 1.702
55.07000 2.553
55.08000 1.383
55.09000 1.809
55.10000 1.702
55.11000 1.383
55.12000 1.596
55.13000 1.702
55.14000 1.596
55.15000 2.340
55.16000 1.809
55.17000 1.915
55.18000 2.128
55.19000 2.128
55.20000 1.809
55.21000 1.596
55.22000 3.511
55.23000 1.915
55.24000 1.702
55.25000 2.234
55.26000 2.234
55.27000 2.128
55.28000 2.553
55.29000 1.702
55.30000 2.447
55.31000 2.766
55.32000 2.021
55.33000 1.809
55.34000 1.383
55.35000 2.979
55.36000 2.553
55.37000 3.404
55.38000 2.340
55.39000 2.234
55.40000 3.191
55.41000 2.234
55.42000 3.617
55.43000 2.553
55.44000 4.255
55.45000 3.085
55.46000 3.085
55.47000 2.447
55.48000 4.043
55.49000 3.404
55.50000 3.298
55.51000 3.085
55.52000 2.979
55.53000 3.617
55.54000 3.511
55.55000 2.553
55.56000 3.404
55.57000 2.021
55.58000 1.915
55.59000 3.085
55.60000 3.085
55.61000 2.340
55.62000 3.404
55.63000 1.702
55.64000 2.128
55.65000 2.128
55.66000 3.404
55.67000 2.340
55.68000 2.340
55.69000 2.447
55.70000 2.766
55.71000 1.596
55.72000 2.660
55.73000 2.128
55.74000 2.234
55.75000 2.660
55.76000 1.702
55.77000 2.021
55.78000 2.340
55.79000 1.915
55.80000 2.021
55.81000 1.596
55.82000 1.170
55.83000 2.553
55.84000 2.128
55.85000 1.809
55.86000 2.021
55.87000 1.702
55.88000 2.021
55.89000 2.234
55.90000 2.447
55.91000 1.596
55.92000 1.489
55.93000 1.915
55.94000 2.340
55.95000 1.809
55.96000 1.702
55.97000 2.021
55.98000 1.596
55.99000 1.596
56.00000 1.170
56.01000 1.383
56.02000 1.915
56.03000 1.489
56.04000 1.383
56.05000 1.915
56.06000 1.383
56.07000 2.660
56.08000 1.277
56.09000 1.064
56.10000 1.170
56.11000 1.277
56.12000 1.277
56.13000 1.915
56.14000 1.489
56.15000 1.596
56.16000 1.596
56.17000 2.021
56.18000 2.021
56.19000 1.277
56.20000 2.128
56.21000 2.447
56.22000 1.170
56.23000 1.277
56.24000 1.277
56.25000 2.447
56.26000 1.915
56.27000 2.021
56.28000 0.851
56.29000 1.809
56.30000 2.021
56.31000 1.277
56.32000 0.745
56.33000 1.277
56.34000 1.277
56.35000 1.383
56.36000 2.021
56.37000 1.596
56.38000 1.809
56.39000 1.383
56.40000 1.383
56.41000 1.489
56.42000 1.809
56.43000 2.234
56.44000 1.383
56.45000 1.809
56.46000 1.489
56.47000 2.021
56.48000 2.021
56.49000 1.489
56.50000 1.596
56.51000 1.915
56.52000 2.128
56.53000 1.702
56.54000 1.915
56.55000 1.277
56.56000 2.553
56.57000 1.489
56.58000 2.340
56.59000 2.340
56.60000 2.660
56.61000 3.723
56.62000 2.128
56.63000 3.404
56.64000 2.553
56.65000 2.021
56.66000 2.234
56.67000 2.128
56.68000 2.128
56.69000 3.085
56.70000 2.447
56.71000 3.085
56.72000 3.085
56.73000 2.553
56.74000 3.298
56.75000 3.617
56.76000 2.979
56.77000 2.872
56.78000 3.936
56.79000 3.298
56.80000 3.085
56.81000 4.468
56.82000 4.255
56.83000 5.319
56.84000 5.213
56.85000 3.830
56.86000 4.574
56.87000 4.043
56.88000 6.596
56.89000 3.936
56.90000 4.255
56.91000 4.894
56.92000 5.426
56.93000 6.915
56.94000 6.809
56.95000 5.957
56.96000 5.851
56.97000 6.809
56.98000 4.894
56.99000 6.277
57.00000 6.596
57.01000 6.809
57.02000 7.021
57.03000 7.340
57.04000 5.851
57.05000 7.021
57.06000 5.319
57.07000 6.170
57.08000 5.319
57.09000 7.021
57.10000 6.596
57.11000 5.638
57.12000 5.957
57.13000 4.894
57.14000 5.851
57.15000 5.532
57.16000 4.894
57.17000 6.064
57.18000 5.106
57.19000 4.255
57.20000 3.936
57.21000 3.723
57.22000 4.894
57.23000 3.617
57.24000 3.404
57.25000 3.936
57.26000 3.723
57.27000 4.043
57.28000 3.511
57.29000 3.830
57.30000 3.085
57.31000 2.340
57.32000 3.723
57.33000 4.149
57.34000 3.085
57.35000 4.149
57.36000 2.660
57.37000 3.085
57.38000 3.191
57.39000 2.979
57.40000 2.340
57.41000 2.872
57.42000 2.553
57.43000 2.128
57.44000 2.447
57.45000 3.085
57.46000 2.660
57.47000 2.340
57.48000 2.553
57.49000 2.447
57.50000 2.234
57.51000 2.766
57.52000 2.128
57.53000 2.021
57.54000 1.489
57.55000 2.340
57.56000 2.340
57.57000 2.234
57.58000 1.915
57.59000 2.340
57.60000 1.702
57.61000 1.915
57.62000 2.128
57.63000 1.277
57.64000 2.021
57.65000 1.702
57.66000 1.064
57.67000 1.915
57.68000 1.702
57.69000 1.702
57.70000 2.021
57.71000 2.340
57.72000 1.064
57.73000 1.596
57.74000 1.915
57.75000 1.170
57.76000 1.596
57.77000 1.809
57.78000 1.277
57.79000 1.489
57.80000 0.851
57.81000 2.553
57.82000 1.809
57.83000 1.809
57.84000 2.447
57.85000 1.489
57.86000 1.489
57.87000 1.915
57.88000 2.128
57.89000 0.638
57.90000 1.277
57.91000 0.638
57.92000 1.489
57.93000 1.489
57.94000 1.170
57.95000 1.277
57.96000 1.383
57.97000 1.277
57.98000 1.596
57.99000 1.596
58.00000 2.021
58.01000 1.383
58.02000 2.021
58.03000 1.596
58.04000 1.489
58.05000 1.489
58.06000 1.277
58.07000 2.021
58.08000 0.957
58.09000 1.064
58.10000 1.489
58.11000 1.489
58.12000 2.021
58.13000 1.915
58.14000 0.745
58.15000 1.915
58.16000 1.170
58.17000 2.021
58.18000 1.383
58.19000 1.596
58.20000 1.915
58.21000 0.851
58.22000 1.809
58.23000 1.809
58.24000 1.383
58.25000 1.064
58.26000 1.809
58.27000 1.383
58.28000 1.064
58.29000 0.957
58.30000 0.957
58.31000 1.277
58.32000 1.064
58.33000 0.851
58.34000 1.064
58.35000 0.851
58.36000 0.851
58.37000 1.383
58.38000 0.745
58.39000 1.170
58.40000 1.277
58.41000 1.489
58.42000 1.596
58.43000 1.170
58.44000 1.702
58.45000 1.064
58.46000 1.489
58.47000 1.702
58.48000 1.489
58.49000 0.745
58.50000 1.383
58.51000 1.383
58.52000 1.170
58.53000 1.383
58.54000 1.915
58.55000 1.383
58.56000 2.021
58.57000 1.064
58.58000 1.277
58.59000 1.596
58.60000 1.596
58.61000 1.170
58.62000 1.383
58.63000 1.489
58.64000 1.915
58.65000 1.064
58.66000 1.915
58.67000 1.170
58.68000 2.128
58.69000 1.702
58.70000 1.596
58.71000 1.064
58.72000 1.277
58.73000 1.064
58.74000 0.532
58.75000 1.277
58.76000 1.596
58.77000 1.170
58.78000 2.660
58.79000 1.277
58.80000 2.766
58.81000 1.596
58.82000 1.064
58.83000 1.383
58.84000 2.128
58.85000 1.809
58.86000 1.277
58.87000 1.489
58.88000 1.915
58.89000 1.277
58.90000 2.766
58.91000 0.851
58.92000 1.489
58.93000 2.021
58.94000 2.553
58.95000 1.489
58.96000 0.745
58.97000 1.277
58.98000 1.170
58.99000 1.702
59.00000 1.383
59.01000 1.489
59.02000 0.745
59.03000 2.128
59.04000 1.915
59.05000 1.383
59.06000 1.277
59.07000 1.383
59.08000 1.277
59.09000 1.702
59.10000 1.170
59.11000 1.489
59.12000 1.170
59.13000 2.128
59.14000 2.340
59.15000 1.915
59.16000 2.872
59.17000 1.596
59.18000 1.489
59.19000 1.277
59.20000 1.064
59.21000 1.809
59.22000 2.021
59.23000 1.489
59.24000 1.596
59.25000 2.234
59.26000 1.915
59.27000 1.596
59.28000 1.915
59.29000 2.021
59.30000 1.383
59.31000 1.489
59.32000 2.021
59.33000 2.234
59.34000 1.489
59.35000 2.340
59.36000 2.553
59.37000 1.596
59.38000 2.128
59.39000 2.021
59.40000 1.915
59.41000 1.596
59.42000 1.915
59.43000 1.809
59.44000 1.809
59.45000 1.809
59.46000 2.340
59.47000 2.660
59.48000 2.553
59.49000 1.277
59.50000 2.553
59.51000 2.128
59.52000 2.234
59.53000 2.447
59.54000 2.553
59.55000 3.191
59.56000 2.553
59.57000 1.702
59.58000 2.553
59.59000 2.447
59.60000 1.915
59.61000 2.234
59.62000 3.298
59.63000 2.447
59.64000 2.660
59.65000 2.234
59.66000 1.702
59.67000 2.128
59.68000 2.340
59.69000 3.404
59.70000 2.021
59.71000 3.085
59.72000 1.702
59.73000 3.085
59.74000 1.383
59.75000 2.660
59.76000 2.766
59.77000 1.596
59.78000 1.915
59.79000 2.021
59.80000 2.553
59.81000 2.234
59.82000 2.234
59.83000 2.021
59.84000 2.766
59.85000 3.191
59.86000 2.128
59.87000 2.128
59.88000 1.702
59.89000 2.234
59.90000 1.596
59.91000 2.979
59.92000 1.915
59.93000 1.702
59.94000 1.915
59.95000 1.596
59.96000 2.340
59.97000 1.702
59.98000 1.489
59.99000 1.596
60.00000 0.745
60.01000 1.809
60.02000 2.234
60.03000 1.489
60.04000 1.596
60.05000 1.596
60.06000 1.596
60.07000 1.170
60.08000 1.277
60.09000 1.383
60.10000 0.745
60.11000 1.702
60.12000 0.851
60.13000 2.234
60.14000 1.383
60.15000 0.745
60.16000 1.064
60.17000 1.383
60.18000 2.128
60.19000 1.489
60.20000 2.128
60.21000 0.851
60.22000 1.064
60.23000 1.915
60.24000 2.128
60.25000 1.383
60.26000 1.809
60.27000 1.383
60.28000 1.170
60.29000 1.383
60.30000 1.596
60.31000 1.277
60.32000 1.596
60.33000 1.170
60.34000 1.596
60.35000 1.809
60.36000 1.596
60.37000 1.702
60.38000 1.277
60.39000 0.638
60.40000 1.596
60.41000 2.021
60.42000 1.277
60.43000 1.277
60.44000 1.064
60.45000 1.383
60.46000 1.383
60.47000 1.064
60.48000 1.596
60.49000 1.277
60.50000 2.128
60.51000 2.021
60.52000 1.596
60.53000 1.702
60.54000 1.277
60.55000 1.596
60.56000 2.234
60.57000 1.383
60.58000 1.383
60.59000 1.383
60.60000 2.128
60.61000 1.915
60.62000 1.277
60.63000 1.702
60.64000 1.383
60.65000 1.489
60.66000 1.383
60.67000 1.383
60.68000 2.021
60.69000 2.340
60.70000 1.383
60.71000 1.277
60.72000 1.596
60.73000 2.340
60.74000 2.128
60.75000 0.957
60.76000 1.915
60.77000 1.277
60.78000 2.021
60.79000 2.447
60.80000 1.702
60.81000 1.702
60.82000 2.340
60.83000 2.021
60.84000 1.383
60.85000 1.383
60.86000 1.809
60.87000 1.915
60.88000 2.128
60.89000 2.128
60.90000 1.702
60.91000 0.745
60.92000 3.191
60.93000 1.277
60.94000 2.660
60.95000 1.809
60.96000 2.553
60.97000 2.340
60.98000 1.702
60.99000 2.128
61.00000 2.447
61.01000 2.340
61.02000 1.915
61.03000 2.340
61.04000 2.660
61.05000 1.596
61.06000 1.915
61.07000 2.660
61.08000 2.340
61.09000 2.553
61.10000 2.340
61.11000 2.021
61.12000 3.404
61.13000 2.447
61.14000 3.085
61.15000 2.553
61.16000 2.234
61.17000 2.447
61.18000 3.191
61.19000 2.872
61.20000 3.085
61.21000 2.979
61.22000 2.234
61.23000 3.191
61.24000 2.340
61.25000 3.191
61.26000 3.191
61.27000 3.617
61.28000 3.617
61.29000 3.830
61.30000 2.660
61.31000 4.574
61.32000 4.043
61.33000 3.085
61.34000 2.234
61.35000 2.660
61.36000 2.660
61.37000 2.766
61.38000 3.085
61.39000 2.660
61.40000 3.404
61.41000 2.766
61.42000 3.511
61.43000 3.830
61.44000 2.660
61.45000 3.936
61.46000 3.830
61.47000 2.553
61.48000 4.468
61.49000 3.723
61.50000 2.979
61.51000 3.404
61.52000 3.936
61.53000 2.660
61.54000 2.979
61.55000 3.191
61.56000 3.404
61.57000 3.617
61.58000 3.936
61.59000 3.936
61.60000 3.404
61.61000 3.723
61.62000 3.511
61.63000 3.617
61.64000 4.787
61.65000 3.085
61.66000 3.936
61.67000 4.468
61.68000 3.936
61.69000 3.085
61.70000 2.766
61.71000 4.043
61.72000 3.085
61.73000 5.106
61.74000 5.319
61.75000 3.617
61.76000 3.830
61.77000 4.362
61.78000 4.043
61.79000 4.149
61.80000 4.043
61.81000 3.830
61.82000 3.936
61.83000 3.298
61.84000 4.255
61.85000 3.617
61.86000 4.468
61.87000 3.723
61.88000 4.894
61.89000 3.191
61.90000 3.511
61.91000 4.681
61.92000 3.298
61.93000 5.426
61.94000 3.298
61.95000 2.766
61.96000 3.191
61.97000 3.830
61.98000 3.723
61.99000 3.617
62.00000 2.979
62.01000 3.298
62.02000 3.404
62.03000 2.872
62.04000 3.830
62.05000 2.872
62.06000 3.085
62.07000 3.404
62.08000 2.340
62.09000 2.766
62.10000 2.447
62.11000 3.298
62.12000 2.128
62.13000 2.660
62.14000 2.766
62.15000 1.809
62.16000 1.489
62.17000 2.128
62.18000 2.447
62.19000 2.128
62.20000 1.915
62.21000 3.085
62.22000 1.809
62.23000 2.128
62.24000 2.234
62.25000 2.553
62.26000 2.979
62.27000 2.128
62.28000 2.553
62.29000 1.809
62.30000 1.809
62.31000 1.383
62.32000 1.915
62.33000 2.128
62.34000 2.234
62.35000 1.596
62.36000 2.872
62.37000 1.915
62.38000 1.809
62.39000 1.915
62.40000 2.234
62.41000 0.957
62.42000 2.021
62.43000 1.277
62.44000 1.489
62.45000 2.234
62.46000 1.809
62.47000 2.234
62.48000 2.766
62.49000 1.809
62.50000 2.128
62.51000 1.489
62.52000 1.489
62.53000 2.128
62.54000 1.702
62.55000 2.447
62.56000 1.809
62.57000 1.809
62.58000 2.021
62.59000 1.809
62.60000 1.489
62.61000 1.489
62.62000 1.809
62.63000 1.383
62.64000 1.809
62.65000 1.064
62.66000 2.447
62.67000 1.489
62.68000 1.702
62.69000 2.021
62.70000 1.489
62.71000 1.170
62.72000 1.489
62.73000 2.021
62.74000 2.021
62.75000 2.021
62.76000 1.170
62.77000 1.915
62.78000 2.021
62.79000 1.915
62.80000 0.957
62.81000 1.277
62.82000 2.340
62.83000 2.447
62.84000 2.447
62.85000 2.021
62.86000 1.809
62.87000 1.277
62.88000 1.064
62.89000 2.128
62.90000 2.447
62.91000 2.234
62.92000 2.021
62.93000 2.340
62.94000 1.277
62.95000 1.809
62.96000 1.489
62.97000 1.702
62.98000 2.447
62.99000 1.702
63.00000 1.596
63.01000 2.234
63.02000 2.340
63.03000 1.915
63.04000 1.489
63.05000 1.383
63.06000 1.277
63.07000 3.298
63.08000 2.128
63.09000 1.809
63.10000 1.170
63.11000 1.702
63.12000 1.383
63.13000 1.596
63.14000 1.702
63.15000 1.809
63.16000 2.128
63.17000 1.809
63.18000 1.277
63.19000 1.170
63.20000 1.915
63.21000 2.021
63.22000 1.170
63.23000 1.596
63.24000 2.340
63.25000 2.872
63.26000 1.915
63.27000 1.064
63.28000 1.809
63.29000 1.383
63.30000 1.702
63.31000 2.128
63.32000 0.851
63.33000 1.489
63.34000 1.383
63.35000 1.596
63.36000 1.383
63.37000 2.128
63.38000 1.915
63.39000 1.489
63.40000 1.596
63.41000 2.021
63.42000 3.085
63.43000 1.170
63.44000 2.021
63.45000 1.383
63.46000 1.596
63.47000 2.553
63.48000 2.021
63.49000 1.596
63.50000 1.809
63.51000 1.596
63.52000 2.234
63.53000 2.128
63.54000 1.489
63.55000 2.340
63.56000 2.979
63.57000 2.021
63.58000 2.021
63.59000 1.596
63.60000 1.277
63.61000 2.553
63.62000 1.915
63.63000 1.383
63.64000 3.191
63.65000 2.340
63.66000 1.596
63.67000 1.383
63.68000 2.021
63.69000 2.340
63.70000 1.383
63.71000 1.915
63.72000 1.809
63.73000 1.064
63.74000 1.489
63.75000 2.128
63.76000 2.660
63.77000 2.340
63.78000 2.553
63.79000 1.596
63.80000 1.809
63.81000 1.064
63.82000 2.128
63.83000 1.064
63.84000 0.957
63.85000 1.596
63.86000 2.128
63.87000 2.128
63.88000 1.277
63.89000 1.915
63.90000 1.702
63.91000 2.021
63.92000 1.383
63.93000 2.340
63.94000 1.915
63.95000 2.021
63.96000 1.702
63.97000 2.021
63.98000 3.085
63.99000 1.702
64.00000 2.021
64.01000 2.128
64.02000 2.872
64.03000 1.702
64.04000 1.596
64.05000 1.809
64.06000 2.447
64.07000 2.128
64.08000 2.234
64.09000 1.383
64.10000 2.340
64.11000 0.851
64.12000 2.128
64.13000 2.872
64.14000 3.298
64.15000 3.723
64.16000 1.915
64.17000 1.596
64.18000 2.128
64.19000 2.447
64.20000 2.553
64.21000 2.340
64.22000 2.128
64.23000 2.021
64.24000 1.702
64.25000 2.234
64.26000 1.596
64.27000 2.128
64.28000 2.447
64.29000 2.766
64.30000 2.447
64.31000 3.298
64.32000 2.660
64.33000 2.979
64.34000 3.298
64.35000 2.766
64.36000 2.128
64.37000 2.447
64.38000 2.660
64.39000 2.340
64.40000 2.234
64.41000 1.489
64.42000 3.723
64.43000 2.766
64.44000 3.191
64.45000 3.830
64.46000 2.660
64.47000 1.809
64.48000 3.404
64.49000 2.234
64.50000 2.553
64.51000 3.617
64.52000 2.979
64.53000 2.872
64.54000 3.085
64.55000 3.511
64.56000 3.830
64.57000 3.936
64.58000 4.043
64.59000 3.723
64.60000 4.362
64.61000 3.191
64.62000 5.745
64.63000 5.000
64.64000 4.468
64.65000 5.532
64.66000 5.745
64.67000 7.128
64.68000 4.574
64.69000 5.638
64.70000 7.128
64.71000 6.383
64.72000 8.298
64.73000 7.553
64.74000 7.128
64.75000 10.000
64.76000 9.255
64.77000 10.745
64.78000 13.298
64.79000 11.702
64.80000 15.106
64.81000 16.596
64.82000 14.468
64.83000 17.447
64.84000 20.532
64.85000 21.702
64.86000 22.021
64.87000 21.915
64.88000 25.638
64.89000 29.468
64.90000 32.340
64.91000 30.426
64.92000 37.660
64.93000 41.064
64.94000 42.553
64.95000 51.277
64.96000 53.085
64.97000 55.426
64.98000 60.532
64.99000 64.468
65.00000 72.128
65.01000 80.426
65.02000 80.638
65.03000 93.298
65.04000 100.106
65.05000 108.936
65.06000 119.681
65.07000 134.787
65.08000 134.255
65.09000 155.638
65.10000 164.043
65.11000 183.723
65.12000 197.128
65.13000 222.660
65.14000 234.574
65.15000 255.319
65.16000 280.106
65.17000 306.277
65.18000 340.957
65.19000 352.872
65.20000 400.851
65.21000 410.532
65.22000 455.638
65.23000 476.277
65.24000 518.298
65.25000 553.298
65.26000 599.574
65.27000 653.404
65.28000 708.298
65.29000 780.532
65.30000 834.043
65.31000 924.255
65.32000 1020.319
65.33000 1123.085
65.34000 1235.532
65.35000 1326.383
65.36000 1495.000
65.37000 1670.426
65.38000 1804.894
65.39000 1978.404
65.40000 2155.000
65.41000 2401.489
65.42000 2579.043
65.43000 2855.000
65.44000 3166.064
65.45000 3550.107
65.46000 4005.319
65.47000 4571.490
65.48000 5237.766
65.49000 5937.447
65.50000 6682.766
65.51000 7441.915
65.52000 8171.596
65.53000 8669.681
65.54000 9168.724
65.55000 9548.724
65.56000 9708.830
65.57000 9651.383
65.58000 9422.554
65.59000 9011.064
65.60000 8470.107
65.61000 7872.341
65.62000 7176.596
65.63000 6422.022
65.64000 5721.277
65.65000 5022.553
65.66000 4330.000
65.67000 3740.319
65.68000 3199.043
65.69000 2742.447
65.70000 2376.064
65.71000 2066.489
65.72000 1807.979
65.73000 1594.149
65.74000 1384.149
65.75000 1211.170
65.76000 1062.128
65.77000 938.936
65.78000 817.340
65.79000 727.979
65.80000 646.915
65.81000 587.872
65.82000 532.553
65.83000 474.787
65.84000 440.745
65.85000 390.745
65.86000 371.702
65.87000 338.298
65.88000 306.809
65.89000 266.596
65.90000 255.957
65.91000 236.702
65.92000 212.553
65.93000 206.915
65.94000 181.170
65.95000 166.277
65.96000 155.532
65.97000 146.383
65.98000 123.511
65.99000 118.298
66.00000 109.681
66.01000 100.106
66.02000 90.851
66.03000 88.404
66.04000 72.872
66.05000 71.809
66.06000 64.043
66.07000 54.574
66.08000 52.234
66.09000 45.106
66.10000 37.660
66.11000 35.426
66.12000 31.277
66.13000 24.362
66.14000 25.638
66.15000 22.340
66.16000 22.660
66.17000 18.511
66.18000 17.021
66.19000 16.596
66.20000 14.787
66.21000 12.447
66.22000 12.340
66.23000 11.277
66.24000 12.340
66.25000 7.766
66.26000 8.298
66.27000 7.553
66.28000 7.979
66.29000 7.447
66.30000 7.234
66.31000 6.915
66.32000 6.064
66.33000 4.894
66.34000 3.511
66.35000 4.894
66.36000 4.681
66.37000 2.766
66.38000 3.617
66.39000 4.043
66.40000 3.085
66.41000 3.830
66.42000 3.617
66.43000 3.830
66.44000 3.191
66.45000 4.043
66.46000 3.404
66.47000 2.766
66.48000 3.617
66.49000 2.766
66.50000 3.723
66.51000 4.149
66.52000 3.085
66.53000 4.681
66.54000 3.404
66.55000 3.404
66.56000 2.766
66.57000 3.617
66.58000 2.553
66.59000 3.723
66.60000 3.404
66.61000 4.468
66.62000 1.915
66.63000 4.043
66.64000 2.340
66.65000 3.298
66.66000 2.340
66.67000 3.191
66.68000 3.511
66.69000 4.043
66.70000 4.149
66.71000 4.574
66.72000 2.340
66.73000 4.043
66.74000 3.723
66.75000 3.404
66.76000 3.298
66.77000 3.830
66.78000 4.681
66.79000 4.362
66.80000 3.085
66.81000 4.043
66.82000 4.149
66.83000 5.426
66.84000 4.255
66.85000 6.383
66.86000 5.213
66.87000 3.723
66.88000 3.404
66.89000 5.213
66.90000 5.319
66.91000 4.681
66.92000 6.170
66.93000 4.149
66.94000 5.851
66.95000 4.574
66.96000 4.894
66.97000 5.106
66.98000 5.319
66.99000 5.957
67.00000 4.681
67.01000 6.277
67.02000 5.745
67.03000 6.170
67.04000 4.787
67.05000 5.532
67.06000 5.106
67.07000 5.426
67.08000 5.638
67.09000 4.468
67.10000 4.681
67.11000 4.787
67.12000 4.468
67.13000 4.468
67.14000 4.043
67.15000 3.936
67.16000 3.936
67.17000 4.043
67.18000 3.617
67.19000 3.298
67.20000 4.574
67.21000 4.255
67.22000 3.830
67.23000 3.511
67.24000 4.043
67.25000 4.043
67.26000 4.468
67.27000 3.404
67.28000 3.191
67.29000 3.085
67.30000 2.766
67.31000 4.255
67.32000 3.723
67.33000 2.766
67.34000 3.936
67.35000 3.085
67.36000 2.447
67.37000 3.085
67.38000 2.660
67.39000 2.766
67.40000 2.234
67.41000 2.766
67.42000 2.553
67.43000 2.447
67.44000 3.511
67.45000 2.128
67.46000 2.872
67.47000 2.872
67.48000 2.447
67.49000 1.596
67.50000 2.872
67.51000 2.340
67.52000 3.085
67.53000 2.553
67.54000 2.128
67.55000 1.809
67.56000 2.128
67.57000 3.404
67.58000 2.447
67.59000 2.553
67.60000 1.809
67.61000 2.128
67.62000 1.809
67.63000 2.660
67.64000 2.234
67.65000 1.915
67.66000 1.809
67.67000 2.553
67.68000 2.447
67.69000 2.553
67.70000 2.340
67.71000 1.702
67.72000 2.447
67.73000 1.915
67.74000 3.191
67.75000 1.915
67.76000 1.809
67.77000 2.128
67.78000 2.021
67.79000 2.128
67.80000 3.085
67.81000 2.979
67.82000 1.596
67.83000 3.191
67.84000 2.766
67.85000 2.447
67.86000 2.872
67.87000 2.234
67.88000 2.553
67.89000 2.766
67.90000 2.128
67.91000 2.128
67.92000 3.085
67.93000 4.468
67.94000 2.340
67.95000 2.872
67.96000 2.660
67.97000 3.404
67.98000 3.085
67.99000 2.340
68.00000 3.085
68.01000 3.723
68.02000 3.191
68.03000 2.553
68.04000 3.404
68.05000 4.468
68.06000 3.404
68.07000 3.936
68.08000 3.511
68.09000 4.574
68.10000 5.000
68.11000 4.255
68.12000 5.000
68.13000 4.468
68.14000 4.149
68.15000 3.830
68.16000 3.404
68.17000 4.894
68.18000 5.319
68.19000 5.319
68.20000 5.213
68.21000 6.596
68.22000 5.957
68.23000 6.064
68.24000 6.170
68.25000 5.851
68.26000 5.000
68.27000 5.106
68.28000 7.766
68.29000 7.872
68.30000 6.489
68.31000 6.915
68.32000 6.915
68.33000 6.489
68.34000 9.255
68.35000 8.511
68.36000 8.298
68.37000 7.660
68.38000 6.809
68.39000 8.936
68.40000 7.128
68.41000 5.851
68.42000 6.383
68.43000 7.872
68.44000 8.085
68.45000 9.468
68.46000 9.255
68.47000 7.340
68.48000 7.234
68.49000 8.191
68.50000 7.553
68.51000 6.809
68.52000 7.234
68.53000 7.872
68.54000 5.638
68.55000 6.383
68.56000 7.128
68.57000 6.702
68.58000 7.128
68.59000 6.596
68.60000 6.489
68.61000 4.894
68.62000 5.638
68.63000 6.596
68.64000 5.851
68.65000 5.319
68.66000 4.574
68.67000 4.468
68.68000 4.894
68.69000 4.149
68.70000 5.106
68.71000 4.787
68.72000 4.362
68.73000 3.723
68.74000 4.149
68.75000 3.617
68.76000 2.979
68.77000 4.255
68.78000 2.872
68.79000 2.979
68.80000 3.511
68.81000 3.830
68.82000 3.298
68.83000 3.617
68.84000 2.872
68.85000 3.191
68.86000 3.085
68.87000 3.404
68.88000 2.872
68.89000 3.830
68.90000 3.191
68.91000 3.617
68.92000 2.766
68.93000 3.723
68.94000 2.660
68.95000 3.404
68.96000 3.617
68.97000 3.085
68.98000 3.298
68.99000 2.660
69.00000 3.617
69.01000 4.149
69.02000 2.234
69.03000 3.404
69.04000 3.404
69.05000 4.255
69.06000 4.255
69.07000 3.617
69.08000 3.830
69.09000 3.936
69.10000 5.000
69.11000 3.617
69.12000 4.681
69.13000 3.830
69.14000 3.830
69.15000 4.681
69.16000 4.894
69.17000 4.787
69.18000 5.106
69.19000 5.213
69.20000 5.319
69.21000 5.532
69.22000 5.106
69.23000 5.745
69.24000 6.170
69.25000 4.681
69.26000 4.681
69.27000 5.957
69.28000 5.532
69.29000 6.064
69.30000 5.851
69.31000 5.957
69.32000 7.872
69.33000 6.277
69.34000 7.021
69.35000 6.277
69.36000 5.745
69.37000 5.106
69.38000 5.532
69.39000 5.000
69.40000 4.362
69.41000 5.319
69.42000 4.894
69.43000 5.106
69.44000 5.957
69.45000 6.170
69.46000 5.213
69.47000 5.638
69.48000 5.745
69.49000 7.234
69.50000 4.255
69.51000 4.894
69.52000 4.787
69.53000 3.936
69.54000 4.787
69.55000 3.298
69.56000 4.149
69.57000 4.255
69.58000 4.255
69.59000 4.149
69.60000 3.936
69.61000 4.149
69.62000 3.191
69.63000 3.511
69.64000 4.149
69.65000 3.723
69.66000 2.766
69.67000 2.979
69.68000 3.085
69.69000 2.447
69.70000 3.191
69.71000 3.191
69.72000 3.404
69.73000 3.723
69.74000 2.234
69.75000 1.702
69.76000 2.553
69.77000 2.340
69.78000 2.447
69.79000 2.766
69.80000 2.766
69.81000 2.021
69.82000 2.021
69.83000 2.553
69.84000 1.915
69.85000 2.021
69.86000 2.234
69.87000 2.021
69.88000 2.872
69.89000 0.957
69.90000 2.234
69.91000 1.915
69.92000 1.809
69.93000 1.702
69.94000 2.660
69.95000 1.064
69.96000 1.489
69.97000 2.340
69.98000 1.915
69.99000 2.340
70.00000 1.809
70.01000 1.702
70.02000 2.128
70.03000 2.340
70.04000 1.383
70.05000 2.128
70.06000 1.383
70.07000 2.021
70.08000 1.809
70.09000 1.277
70.10000 1.277
70.11000 1.596
70.12000 1.489
70.13000 1.383
70.14000 1.702
70.15000 1.596
70.16000 1.702
70.17000 1.915
70.18000 0.851
70.19000 1.383
70.20000 1.702
70.21000 1.170
70.22000 1.383
70.23000 2.021
70.24000 1.383
70.25000 1.064
70.26000 1.809
70.27000 1.596
70.28000 1.809
70.29000 1.809
70.30000 1.702
70.31000 1.596
70.32000 1.170
70.33000 1.702
70.34000 1.915
70.35000 1.596
70.36000 0.957
70.37000 0.851
70.38000 1.277
70.39000 0.745
70.40000 1.170
70.41000 2.021
70.42000 1.596
70.43000 1.277
70.44000 1.170
70.45000 1.170
70.46000 1.489
70.47000 1.702
70.48000 2.340
70.49000 1.809
70.50000 1.170
70.51000 0.638
70.52000 1.702
70.53000 1.809
70.54000 1.277
70.55000 1.809
70.56000 0.851
70.57000 1.809
70.58000 2.021
70.59000 1.383
70.60000 1.383
70.61000 1.702
70.62000 0.532
70.63000 1.489
70.64000 1.809
70.65000 0.851
70.66000 1.277
70.67000 1.277
70.68000 1.277
70.69000 1.596
70.70000 1.277
70.71000 1.489
70.72000 1.702
70.73000 1.383
70.74000 2.340
70.75000 1.809
70.76000 1.596
70.77000 1.702
70.78000 1.383
70.79000 0.745
70.80000 0.957
70.81000 0.638
70.82000 0.957
70.83000 2.021
70.84000 1.915
70.85000 0.957
70.86000 1.170
70.87000 0.957
70.88000 2.128
70.89000 1.489
70.90000 1.915
70.91000 2.128
70.92000 1.489
70.93000 1.383
70.94000 1.170
70.95000 1.596
70.96000 1.277
70.97000 1.383
70.98000 1.064
70.99000 1.277
71.00000 1.064
71.01000 1.383
71.02000 1.702
71.03000 1.383
71.04000 0.638
71.05000 0.745
71.06000 0.851
71.07000 1.489
71.08000 2.340
71.09000 1.915
71.10000 0.957
71.11000 1.809
71.12000 1.596
71.13000 1.170
71.14000 2.447
71.15000 0.957
71.16000 1.277
71.17000 1.383
71.18000 1.170
71.19000 1.702
71.20000 1.064
71.21000 1.064
71.22000 1.489
71.23000 2.021
71.24000 1.170
71.25000 1.809
71.26000 1.383
71.27000 0.851
71.28000 1.489
71.29000 1.383
71.30000 1.489
71.31000 2.021
71.32000 1.064
71.33000 1.809
71.34000 1.809
71.35000 1.915
71.36000 1.489
71.37000 1.489
71.38000 1.809
71.39000 1.383
71.40000 0.851
71.41000 2.234
71.42000 1.277
71.43000 1.064
71.44000 1.383
71.45000 1.383
71.46000 1.383
71.47000 0.851
71.48000 1.489
71.49000 1.277
71.50000 1.489
71.51000 1.170
71.52000 1.383
71.53000 0.957
71.54000 1.915
71.55000 1.277
71.56000 1.596
71.57000 1.064
71.58000 1.383
71.59000 1.702
71.60000 1.809
71.61000 1.383
71.62000 0.851
71.63000 1.596
71.64000 1.170
71.65000 1.170
71.66000 1.489
71.67000 0.745
71.68000 0.957
71.69000 1.277
71.70000 0.851
71.71000 1.170
71.72000 1.809
71.73000 1.809
71.74000 1.702
71.75000 2.340
71.76000 1.064
71.77000 2.021
71.78000 2.234
71.79000 0.957
71.80000 1.170
71.81000 1.915
71.82000 1.277
71.83000 0.957
71.84000 1.596
71.85000 1.170
71.86000 0.745
71.87000 1.170
71.88000 0.638
71.89000 1.596
71.90000 1.915
71.91000 0.745
71.92000 2.447
71.93000 1.596
71.94000 1.383
71.95000 1.383
71.96000 1.170
71.97000 1.170
71.98000 0.745
71.99000 2.234
72.00000 1.170
72.01000 1.915
72.02000 1.596
72.03000 1.383
72.04000 1.277
72.05000 1.277
72.06000 1.596
72.07000 0.851
72.08000 1.277
72.09000 1.702
72.10000 1.596
72.11000 1.489
72.12000 0.851
72.13000 1.064
72.14000 1.596
72.15000 1.277
72.16000 1.064
72.17000 1.596
72.18000 1.383
72.19000 1.915
72.20000 0.745
72.21000 1.064
72.22000 0.957
72.23000 1.277
72.24000 2.021
72.25000 1.702
72.26000 1.064
72.27000 0.745
72.28000 1.383
72.29000 0.851
72.30000 1.277
72.31000 0.638
72.32000 1.596
72.33000 0.957
72.34000 1.170
72.35000 1.383
72.36000 0.957
72.37000 1.596
72.38000 1.383
72.39000 1.489
72.40000 0.957
72.41000 1.489
72.42000 0.532
72.43000 0.957
72.44000 1.277
72.45000 1.915
72.46000 1.064
72.47000 1.383
72.48000 1.489
72.49000 0.851
72.50000 1.277
72.51000 0.957
72.52000 1.064
72.53000 1.596
72.54000 1.702
72.55000 1.809
72.56000 1.702
72.57000 1.596
72.58000 0.851
72.59000 0.957
72.60000 1.170
72.61000 1.489
72.62000 1.702
72.63000 0.638
72.64000 1.809
72.65000 0.957
72.66000 0.745
72.67000 0.851
72.68000 1.489
72.69000 1.277
72.70000 1.489
72.71000 1.915
72.72000 0.745
72.73000 1.383
72.74000 1.170
72.75000 0.745
72.76000 0.851
72.77000 0.957
72.78000 1.064
72.79000 2.447
72.80000 1.383
72.81000 1.489
72.82000 1.915
72.83000 1.383
72.84000 1.489
72.85000 1.170
72.86000 1.383
72.87000 2.128
72.88000 0.851
72.89000 1.489
72.90000 1.596
72.91000 1.170
72.92000 1.277
72.93000 1.277
72.94000 1.277
72.95000 1.809
72.96000 0.319
72.97000 1.064
72.98000 1.064
72.99000 1.277
73.00000 1.064
73.01000 1.277
73.02000 1.277
73.03000 1.170
73.04000 1.489
73.05000 1.170
73.06000 1.170
73.07000 1.702
73.08000 1.170
73.09000 0.957
73.10000 1.383
73.11000 0.957
73.12000 1.383
73.13000 1.489
73.14000 1.064
73.15000 0.957
73.16000 1.064
73.17000 1.064
73.18000 1.383
73.19000 0.851
73.20000 1.277
73.21000 0.851
73.22000 1.277
73.23000 1.596
73.24000 1.702
73.25000 1.170
73.26000 1.489
73.27000 1.489
73.28000 0.745
73.29000 1.064
73.30000 1.383
73.31000 1.702
73.32000 0.532
73.33000 1.170
73.34000 1.277
73.35000 0.745
73.36000 1.596
73.37000 0.745
73.38000 1.064
73.39000 1.702
73.40000 0.638
73.41000 1.383
73.42000 1.702
73.43000 0.638
73.44000 1.064
73.45000 1.170
73.46000 1.170
73.47000 1.064
73.48000 0.638
73.49000 1.596
73.50000 0.851
73.51000 0.851
73.52000 1.277
73.53000 1.383
73.54000 1.064
73.55000 1.064
73.56000 1.702
73.57000 1.489
73.58000 1.383
73.59000 1.277
73.60000 1.596
73.61000 1.170
73.62000 1.596
73.63000 1.277
73.64000 0.957
73.65000 1.170
73.66000 2.234
73.67000 1.064
73.68000 0.745
73.69000 1.383
73.70000 0.957
73.71000 1.915
73.72000 0.638
73.73000 2.021
73.74000 1.809
73.75000 1.596
73.76000 0.957
73.77000 0.957
73.78000 1.064
73.79000 1.702
73.80000 2.340
73.81000 1.702
73.82000 1.383
73.83000 1.277
73.84000 1.702
73.85000 1.170
73.86000 1.064
73.87000 1.596
73.88000 1.064
73.89000 0.851
73.90000 1.383
73.91000 0.745
73.92000 1.064
73.93000 1.489
73.94000 1.489
73.95000 1.277
73.96000 1.809
73.97000 1.383
73.98000 1.277
73.99000 1.064
74.00000 1.170
74.01000 1.489
74.02000 1.596
74.03000 1.170
74.04000 2.660
74.05000 0.957
74.06000 1.489
74.07000 1.170
74.08000 0.319
74.09000 1.809
74.10000 1.170
74.11000 1.064
74.12000 2.021
74.13000 0.532
74.14000 0.851
74.15000 1.170
74.16000 0.957
74.17000 1.702
74.18000 0.745
74.19000 2.128
74.20000 1.702
74.21000 1.383
74.22000 1.383
74.23000 1.170
74.24000 1.702
74.25000 1.596
74.26000 1.170
74.27000 0.957
74.28000 1.277
74.29000 0.851
74.30000 1.702
74.31000 1.596
74.32000 1.170
74.33000 1.809
74.34000 2.234
74.35000 1.702
74.36000 1.064
74.37000 1.809
74.38000 1.596
74.39000 2.128
74.40000 1.596
74.41000 1.383
74.42000 0.957
74.43000 1.064
74.44000 1.596
74.45000 1.489
74.46000 0.851
74.47000 1.702
74.48000 2.021
74.49000 1.809
74.50000 2.021
74.51000 1.170
74.52000 0.851
74.53000 1.489
74.54000 1.915
74.55000 2.021
74.56000 1.383
74.57000 2.340
74.58000 1.915
74.59000 1.383
74.60000 1.702
74.61000 0.426
74.62000 1.383
74.63000 1.809
74.64000 2.553
74.65000 1.596
74.66000 1.809
74.67000 1.596
74.68000 1.702
74.69000 2.553
74.70000 1.915
74.71000 1.383
74.72000 1.596
74.73000 1.596
74.74000 2.128
74.75000 1.383
74.76000 1.596
74.77000 2.234
74.78000 1.915
74.79000 2.128
74.80000 2.021
74.81000 1.170
74.82000 1.170
74.83000 1.489
74.84000 1.383
74.85000 2.128
74.86000 1.809
74.87000 1.489
74.88000 2.340
74.89000 1.064
74.90000 1.277
74.91000 2.340
74.92000 1.489
74.93000 2.553
74.94000 2.447
74.95000 1.915
74.96000 1.277
74.97000 1.915
74.98000 1.489
74.99000 2.021
75.00000 2.021
75.01000 1.702
75.02000 1.809
75.03000 1.383
75.04000 2.021
75.05000 2.660
75.06000 2.766
75.07000 2.128
75.08000 2.979
75.09000 2.979
75.10000 2.234
75.11000 2.766
75.12000 2.340
75.13000 2.979
75.14000 2.234
75.15000 2.766
75.16000 3.404
75.17000 3.830
75.18000 3.617
75.19000 2.979
75.20000 2.234
75.21000 3.936
75.22000 4.149
75.23000 3.085
75.24000 4.787
75.25000 5.638
75.26000 3.936
75.27000 5.851
75.28000 4.043
75.29000 5.213
75.30000 4.362
75.31000 5.000
75.32000 5.532
75.33000 5.426
75.34000 6.383
75.35000 5.532
75.36000 5.213
75.37000 5.638
75.38000 6.383
75.39000 5.745
75.40000 6.064
75.41000 5.957
75.42000 6.702
75.43000 6.809
75.44000 7.234
75.45000 7.234
75.46000 7.872
75.47000 7.553
75.48000 7.340
75.49000 9.149
75.50000 6.702
75.51000 8.617
75.52000 7.660
75.53000 8.723
75.54000 8.511
75.55000 10.319
75.56000 8.511
75.57000 8.830
75.58000 9.468
75.59000 7.979
75.60000 8.936
75.61000 9.894
75.62000 7.447
75.63000 7.979
75.64000 8.830
75.65000 9.894
75.66000 7.447
75.67000 8.085
75.68000 8.830
75.69000 8.936
75.70000 7.447
75.71000 8.191
75.72000 5.957
75.73000 7.128
75.74000 7.128
75.75000 5.851
75.76000 6.170
75.77000 6.277
75.78000 6.170
75.79000 6.170
75.80000 6.702
75.81000 7.766
75.82000 5.000
75.83000 4.574
75.84000 5.426
75.85000 6.277
75.86000 5.213
75.87000 4.255
75.88000 4.681
75.89000 3.936
75.90000 4.574
75.91000 3.511
75.92000 5.319
75.93000 3.085
75.94000 4.894
75.95000 3.830
75.96000 3.404
75.97000 2.766
75.98000 2.766
75.99000 4.894
76.00000 2.872
76.01000 2.447
76.02000 2.553
76.03000 3.191
76.04000 2.660
76.05000 2.340
76.06000 2.447
76.07000 2.234
76.08000 3.298
76.09000 3.191
76.10000 2.553
76.11000 2.234
76.12000 2.979
76.13000 2.340
76.14000 1.809
76.15000 2.553
76.16000 2.340
76.17000 1.702
76.18000 1.702
76.19000 2.234
76.20000 1.915
76.21000 2.021
76.22000 1.489
76.23000 2.766
76.24000 2.553
76.25000 1.809
76.26000 1.702
76.27000 2.128
76.28000 2.766
76.29000 1.809
76.30000 1.489
76.31000 2.447
76.32000 1.383
76.33000 2.234
76.34000 2.553
76.35000 1.489
76.36000 1.596
76.37000 1.277
76.38000 1.809
76.39000 1.170
76.40000 1.702
76.41000 1.915
76.42000 1.489
76.43000 2.340
76.44000 1.915
76.45000 1.277
76.46000 1.277
76.47000 1.702
76.48000 1.809
76.49000 1.383
76.50000 1.809
76.51000 1.596
76.52000 2.234
76.53000 1.809
76.54000 1.489
76.55000 1.277
76.56000 1.489
76.57000 1.383
76.58000 1.170
76.59000 1.915
76.60000 2.340
76.61000 1.170
76.62000 0.957
76.63000 1.596
76.64000 1.809
76.65000 1.170
76.66000 1.064
76.67000 1.064
76.68000 1.383
76.69000 1.915
76.70000 2.234
76.71000 1.383
76.72000 1.277
76.73000 1.489
76.74000 0.851
76.75000 1.596
76.76000 1.489
76.77000 1.702
76.78000 1.596
76.79000 1.489
76.80000 0.851
76.81000 1.596
76.82000 0.851
76.83000 1.809
76.84000 0.851
76.85000 1.489
76.86000 1.489
76.87000 1.489
76.88000 2.021
76.89000 2.128
76.90000 1.915
76.91000 2.021
76.92000 1.170
76.93000 2.553
76.94000 1.702
76.95000 2.128
76.96000 1.596
76.97000 1.383
76.98000 2.128
76.99000 1.277
77.00000 1.489
77.01000 1.809
77.02000 2.021
77.03000 1.702
77.04000 1.702
77.05000 1.596
77.06000 1.489
77.07000 1.277
77.08000 1.064
77.09000 1.596
77.10000 2.234
77.11000 1.277
77.12000 2.447
77.13000 2.021
77.14000 1.489
77.15000 1.702
77.16000 1.915
77.17000 1.277
77.18000 1.915
77.19000 1.596
77.20000 2.766
77.21000 2.021
77.22000 2.128
77.23000 1.915
77.24000 2.340
77.25000 1.809
77.26000 2.128
77.27000 2.021
77.28000 2.979
77.29000 2.234
77.30000 2.234
77.31000 2.128
77.32000 2.447
77.33000 2.979
77.34000 2.979
77.35000 3.298
77.36000 1.915
77.37000 3.085
77.38000 2.660
77.39000 3.085
77.40000 3.830
77.41000 3.404
77.42000 3.830
77.43000 4.255
77.44000 2.447
77.45000 4.362
77.46000 3.936
77.47000 3.191
77.48000 3.511
77.49000 4.681
77.50000 3.404
77.51000 3.298
77.52000 3.830
77.53000 3.617
77.54000 3.511
77.55000 5.426
77.56000 4.468
77.57000 4.255
77.58000 4.255
77.59000 3.936
77.60000 4.574
77.61000 3.936
77.62000 4.043
77.63000 6.170
77.64000 4.149
77.65000 3.936
77.66000 3.723
77.67000 5.638
77.68000 3.830
77.69000 4.574
77.70000 5.106
77.71000 4.255
77.72000 3.617
77.73000 4.043
77.74000 4.149
77.75000 4.149
77.76000 3.191
77.77000 4.149
77.78000 3.191
77.79000 2.766
77.80000 4.574
77.81000 3.191
77.82000 3.191
77.83000 4.043
77.84000 4.043
77.85000 4.149
77.86000 4.574
77.87000 3.298
77.88000 3.936
77.89000 3.936
77.90000 3.617
77.91000 3.723
77.92000 3.936
77.93000 4.149
77.94000 3.830
77.95000 2.872
77.96000 3.511
77.97000 4.043
77.98000 4.149
77.99000 3.511
78.00000 3.723
78.01000 2.447
78.02000 3.830
78.03000 2.766
78.04000 3.723
78.05000 4.255
78.06000 3.936
78.07000 2.660
78.08000 3.936
78.09000 3.723
78.10000 2.340
78.11000 3.298
78.12000 2.979
78.13000 3.936
78.14000 2.447
78.15000 3.830
78.16000 3.723
78.17000 2.447
78.18000 2.979
78.19000 3.830
78.20000 3.191
78.21000 4.362
78.22000 2.872
78.23000 2.340
78.24000 2.766
78.25000 2.660
78.26000 2.660
78.27000 3.191
78.28000 2.979
78.29000 3.298
78.30000 2.872
78.31000 2.447
78.32000 2.553
78.33000 3.298
78.34000 2.234
78.35000 1.702
78.36000 1.809
78.37000 3.085
78.38000 1.809
78.39000 2.128
78.40000 2.447
78.41000 2.234
78.42000 2.872
78.43000 2.340
78.44000 2.660
78.45000 1.702
78.46000 2.660
78.47000 2.979
78.48000 2.447
78.49000 1.702
78.50000 2.979
78.51000 2.766
78.52000 1.809
78.53000 1.277
78.54000 2.128
78.55000 2.766
78.56000 2.234
78.57000 2.553
78.58000 1.915
78.59000 2.021
78.60000 1.915
78.61000 1.277
78.62000 2.340
78.63000 2.234
78.64000 1.596
78.65000 1.596
78.66000 2.447
78.67000 1.170
78.68000 1.489
78.69000 1.170
78.70000 1.064
78.71000 1.915
78.72000 1.064
78.73000 1.170
78.74000 1.383
78.75000 1.383
78.76000 2.234
78.77000 1.702
78.78000 1.596
78.79000 2.128
78.80000 1.064
78.81000 2.021
78.82000 1.383
78.83000 1.809
78.84000 2.128
78.85000 0.957
78.86000 0.957
78.87000 1.596
78.88000 1.809
78.89000 1.277
78.90000 2.021
78.91000 1.383
78.92000 2.128
78.93000 1.915
78.94000 2.128
78.95000 1.489
78.96000 1.489
78.97000 1.915
78.98000 1.702
78.99000 0.745
79.00000 0.957
79.01000 1.915
79.02000 1.170
79.03000 1.809
79.04000 2.021
79.05000 1.489
79.06000 1.596
79.07000 1.383
79.08000 1.809
79.09000 1.170
79.10000 1.277
79.11000 1.277
79.12000 1.170
79.13000 2.128
79.14000 1.170
79.15000 1.383
79.16000 0.426
79.17000 1.489
79.18000 1.383
79.19000 1.489
79.20000 2.128
79.21000 1.277
79.22000 1.277
79.23000 2.447
79.24000 1.489
79.25000 1.702
79.26000 1.383
79.27000 1.064
79.28000 1.915
79.29000 1.170
79.30000 1.277
79.31000 1.809
79.32000 1.383
79.33000 1.809
79.34000 0.957
79.35000 1.383
79.36000 1.702
79.37000 1.489
79.38000 1.277
79.39000 1.596
79.40000 1.489
79.41000 1.277
79.42000 1.064
79.43000 1.596
79.44000 2.340
79.45000 1.489
79.46000 1.064
79.47000 1.383
79.48000 0.851
79.49000 1.809
79.50000 1.915
79.51000 1.809
79.52000 0.851
79.53000 1.596
79.54000 1.596
79.55000 1.170
79.56000 0.319
79.57000 1.170
79.58000 0.957
79.59000 0.638
79.60000 1.489
79.61000 1.064
79.62000 1.170
79.63000 0.957
79.64000 1.702
79.65000 1.596
79.66000 1.702
79.67000 1.596
79.68000 1.915
79.69000 1.277
79.70000 1.170
79.71000 1.277
79.72000 0.851
79.73000 1.702
79.74000 1.064
79.75000 1.383
79.76000 1.064
79.77000 1.383
79.78000 0.957
79.79000 1.170
79.80000 1.064
79.81000 0.957
79.82000 0.638
79.83000 0.957
79.84000 1.489
79.85000 1.489
79.86000 1.064
79.87000 1.064
79.88000 1.383
79.89000 0.957
79.90000 1.277
79.91000 1.170
79.92000 0.532
79.93000 1.383
79.94000 0.957
79.95000 0.851
79.96000 0.957
79.97000 0.851
79.98000 0.957
79.99000 0.851
80.00000 0.851
